ALV-7004 CGS-8F Data, Single Run Data
Date :	"11.05.2021"
Time :	"09:37:46"
Samplename : 	"093 2021 Wasser"
SampMemo(0) : 	"Wasser-Messung "
SampMemo(1) : 	""
SampMemo(2) : 	""
SampMemo(3) : 	""
SampMemo(4) : 	""
SampMemo(5) : 	""
SampMemo(6) : 	""
SampMemo(7) : 	""
SampMemo(8) : 	""
SampMemo(9) : 	""
Temperature [K] :	     292.95790
Viscosity [cp]  :	       1.00664
Refractive Index:	       1.33200
Wavelength [nm] :	     632.80000
Angle(1)[°]     :	      34.00000
Angle(2)[°]     :	      50.00000
Angle(3)[°]     :	      66.00000
Angle(4)[°]     :	      82.00000
Angle(5)[°]     :	      98.00000
Angle(6)[°]     :	     114.00000
Angle(7)[°]     :	     130.00000
Angle(8)[°]     :	     146.00000
Duration [s]    :	          30.0
Runs            :	         1
Mode            :	"8 x AUTO, 100 ns STC"
MeanCR1 [kHz]   :	       4.05472
MeanCR2 [kHz]   :	       2.70457
MeanCR3 [kHz]   :	       2.38702
MeanCR4 [kHz]   :	       1.95283
MeanCR5 [kHz]   :	       9.15004
MeanCR6 [kHz]   :	       2.06477
MeanCR7 [kHz]   :	       1.89024
MeanCR8 [kHz]   :	       1.47616
Atten[1]        :	       1.00000
Atten[2]        :	       1.00000
Atten[3]        :	       1.00000
RelSens[1]      :	       1.00000
RelSens[2]      :	       1.00000
RelSens[3]      :	       1.00000
RelSens[4]      :	       1.00000
RelSens[5]      :	       1.00000
RelSens[6]      :	       1.00000
RelSens[7]      :	       1.00000
RelSens[8]      :	       1.00000
DC[1][kHz]      :	       0.00000
DC[2][kHz]      :	       0.00000
DC[3][kHz]      :	       0.00000
DC[4][kHz]      :	       0.00000
DC[5][kHz]      :	       0.00000
DC[6][kHz]      :	       0.00000
DC[7][kHz]      :	       0.00000
DC[8][kHz]      :	       0.00000

"Correlation"
  1.00000E-004	  2.78740E+000	  3.82958E+000	  1.30734E+000	  3.24280E-001	  1.62317E+000	  3.79883E+000	  4.28806E+000	  5.11017E-001
  2.00000E-004	  5.68521E-001	  1.84642E+000	  2.70994E-001	  2.68521E-001	  1.16411E+000	  5.21582E-001	  1.29073E+000	  4.45100E-001
  3.00000E-004	  5.68521E-001	  8.43173E-001	 -1.78743E-001	  1.90856E-001	  2.24144E-001	 -1.97504E-002	  5.27156E-001	  1.96644E-001
  4.00000E-004	  1.85955E-001	  1.05315E+000	  3.63487E-002	  2.22719E-001	  2.89723E-001	  3.60645E-001	  2.19445E-001	  8.00222E-002
  5.00000E-004	  3.00725E-001	  4.93203E-001	 -2.17850E-001	  1.55011E-001	  3.11583E-001	  1.41186E-001	  3.90396E-001	  1.76362E-001
  6.00000E-004	 -8.18413E-002	  4.93203E-001	 -1.00528E-001	  1.27132E-001	  1.36705E-001	  8.26638E-002	  1.16875E-001	  2.42464E-002
  7.00000E-004	 -3.11381E-001	  4.46541E-001	 -3.35173E-001	  1.90856E-001	 -1.25611E-001	 -1.51426E-001	  2.53635E-001	  3.96430E-003
  8.00000E-004	  6.83291E-001	  2.13228E-001	  1.67949E-002	  1.94839E-001	 -2.13050E-001	 -1.22165E-001	 -8.82652E-002	 -2.64589E-002
  9.00000E-004	 -2.34868E-001	  9.59829E-001	 -1.39635E-001	  2.34667E-001	 -3.00489E-001	  2.87492E-001	 -3.61786E-001	  1.35798E-001
  1.00000E-003	 -8.18413E-002	 -6.67479E-002	 -6.14201E-002	  1.39080E-001	  3.99022E-001	  1.70447E-001	  1.39669E-001	  3.43874E-002
  1.10000E-003	 -3.87894E-001	 -6.67479E-002	  4.07870E-001	  9.52693E-002	 -2.13050E-001	  1.11925E-001	  2.90829E-003	 -2.64589E-002
  1.20000E-003	  6.83291E-001	  3.99878E-001	  9.50099E-002	  1.39080E-001	 -1.25611E-001	  2.28970E-001	  3.22015E-001	  7.49516E-002
  1.30000E-003	  2.24212E-001	  2.65773E-002	 -3.74280E-001	  1.47046E-001	 -3.81726E-002	 -1.22165E-001	  2.30842E-001	 -1.27862E-001
  1.40000E-003	  9.89344E-001	 -6.67479E-002	  7.98945E-001	  8.33209E-002	 -3.81726E-002	 -6.36422E-002	 -4.26785E-002	 -1.07580E-001
  1.50000E-003	 -3.87894E-001	 -3.46724E-001	  1.67949E-002	  1.70942E-001	  7.48777E-001	 -3.56254E-001	  1.39669E-001	  1.41137E-002
  1.60000E-003	 -4.64407E-001	  2.65773E-002	  1.73225E-001	  1.33106E-001	  2.24144E-001	  2.58231E-001	 -8.82652E-002	  2.42547E-002
  1.80000E-003	  7.11851E-002	  1.19902E-001	  3.29655E-001	  1.92848E-001	  4.92662E-002	  2.41413E-002	  1.39668E-001	  3.43959E-002
  2.00000E-003	  3.00725E-001	  3.06553E-001	 -2.23127E-002	  2.02805E-001	  9.29856E-002	 -3.26993E-001	  1.39668E-001	 -1.63098E-002
  2.20000E-003	  6.83291E-001	  2.59890E-001	 -6.14202E-002	  1.45054E-001	 -3.81727E-002	  1.41186E-001	 -6.54719E-002	 -5.68743E-002
  2.40000E-003	 -8.18414E-002	 -6.67479E-002	  1.34117E-001	  9.32778E-002	  2.24144E-001	 -2.39209E-001	 -2.02232E-001	 -1.63098E-002
  2.60000E-003	 -1.58355E-001	 -1.60073E-001	 -1.78743E-001	  9.72606E-002	  2.24144E-001	  3.75275E-001	  4.84950E-002	 -6.16866E-003
  2.80000E-003	  3.00725E-001	 -6.67479E-002	 -4.52495E-001	  1.57003E-001	  1.80424E-001	 -3.56254E-001	 -6.54719E-002	 -4.67332E-002
  3.00000E-003	  7.11851E-002	 -2.06736E-001	 -1.78743E-001	  1.80899E-001	  3.55302E-001	 -6.36422E-002	 -1.11059E-001	  1.05384E-001
  3.20000E-003	 -8.18415E-002	  1.19902E-001	 -2.37404E-001	  1.52024E-001	  2.46003E-001	 -9.29035E-002	  1.73858E-001	  3.94663E-002
  3.60000E-003	 -4.26151E-001	  9.65710E-002	  2.12332E-001	  8.63078E-002	 -1.63130E-002	 -1.07534E-001	 -1.90835E-001	 -9.23684E-002
  4.00000E-003	  3.00725E-001	  2.65771E-002	 -1.78743E-001	  1.10205E-001	  2.74064E-002	 -2.39209E-001	 -8.48856E-003	 -2.13805E-002
  4.40000E-003	 -8.18415E-002	  1.66565E-001	 -6.14203E-002	  1.65964E-001	  4.92661E-002	  9.72942E-002	 -8.82653E-002	  4.96161E-002
  4.80000E-003	 -5.32824E-003	 -4.34167E-002	  1.67947E-002	  1.07217E-001	  1.14845E-001	  5.34024E-002	  3.70982E-002	 -6.16059E-003
  5.20000E-003	  1.09442E-001	  4.99084E-002	 -2.23128E-002	  1.75921E-001	 -1.69331E-001	 -5.11996E-003	  2.90812E-003	  8.51104E-002
  5.60000E-003	 -4.35848E-002	  2.65771E-002	 -4.18665E-002	  1.52024E-001	  2.67863E-001	 -4.73299E-001	 -4.26786E-002	 -1.17714E-001
  6.00000E-003	  2.62468E-001	  2.83221E-001	  3.63485E-002	  1.88865E-001	  1.58565E-001	  6.80330E-002	  2.57015E-002	  3.98063E-003
  6.40000E-003	  1.85955E-001	  1.89896E-001	 -2.23130E-002	  1.52522E-001	  9.29853E-002	  9.72939E-002	  1.28271E-001	 -8.68796E-003
  7.20000E-003	  9.03130E-002	  2.65769E-002	  2.65714E-002	  1.13689E-001	  5.54645E-003	 -6.36425E-002	  1.43046E-002	  1.45334E-003
  8.00000E-003	  9.03130E-002	  1.19902E-001	  4.61251E-002	  1.06719E-001	 -5.38340E-003	  6.80328E-002	  5.98913E-002	  9.05932E-003
  8.80000E-003	 -1.96611E-001	 -1.36742E-001	 -1.00528E-001	  1.28127E-001	  1.14845E-001	 -4.90119E-002	 -8.82655E-002	 -6.15263E-003
  9.60000E-003	  2.43339E-001	 -1.71739E-001	 -5.16436E-002	  1.61981E-001	  5.54645E-003	  1.68257E-002	 -1.98855E-002	 -2.89706E-002
  1.04000E-002	  5.20564E-002	  3.24563E-003	  2.65714E-002	  1.42565E-001	  1.47635E-001	 -2.70661E-002	  7.69863E-002	  3.94832E-002
  1.12000E-002	  2.05083E-001	 -7.84139E-002	  9.50095E-002	  1.41569E-001	 -9.28222E-002	 -1.00219E-001	 -8.82655E-002	 -1.62939E-002
  1.20000E-002	 -4.35851E-002	 -2.00857E-002	  2.65714E-002	  1.46547E-001	  2.13214E-001	 -6.36425E-002	 -9.96622E-002	  7.24424E-002
  1.28000E-002	  3.29277E-002	 -9.59128E-002	 -1.74250E-002	  1.84881E-001	  1.58564E-001	 -5.12060E-003	 -1.13384E-002	  8.25922E-002
  1.44000E-002	  1.57262E-001	  6.15734E-002	 -6.63093E-002	  1.24144E-001	 -5.38383E-003	  1.66789E-001	 -7.97184E-002	  4.96327E-002
  1.60000E-002	 -5.31496E-002	 -3.17517E-002	  1.67941E-002	  1.54512E-001	  2.19408E-002	  4.97441E-002	  7.98350E-002	 -9.94790E-003
  1.76000E-002	  3.29277E-002	  5.57406E-002	 -9.56399E-002	  1.39328E-001	 -1.20147E-001	  2.19469E-003	 -3.69809E-002	 -2.64356E-002
  1.92000E-002	 -5.32888E-003	 -2.59189E-002	 -9.56399E-002	  1.50530E-001	  6.01953E-002	  6.43747E-002	 -3.69809E-002	  3.82151E-002
  2.08000E-002	 -1.39227E-001	 -1.13411E-001	  2.65709E-002	  1.61233E-001	 -5.38383E-003	 -9.65617E-002	  4.84942E-002	 -4.88539E-003
  2.24000E-002	 -2.44572E-002	 -7.84143E-002	  1.58559E-001	  1.05225E-001	 -6.54980E-002	  6.43747E-002	  1.14550E-002	 -3.15063E-002
  2.40000E-002	  4.23527E-003	  5.57406E-002	 -4.18671E-002	  1.52770E-001	  8.20550E-002	  1.11924E-001	  5.98909E-002	 -7.42072E-003
  2.56000E-002	  1.04683E-001	  6.16076E-003	  4.36796E-002	  1.44306E-001	  5.54516E-003	  3.69414E-002	  3.85212E-002	 -6.82540E-002
  2.88000E-002	 -1.00951E-001	 -1.42541E-002	 -1.15194E-001	  1.43434E-001	  3.01373E-002	  2.59685E-002	  3.28229E-002	  1.09761E-002
  3.20000E-002	  5.20789E-002	 -4.05018E-002	  5.83448E-002	  1.63473E-001	  1.92075E-002	 -5.26708E-002	 -7.06546E-003	 -4.03650E-002
  3.52000E-002	 -1.00894E-002	  6.16076E-003	  4.61238E-002	  1.50778E-001	  5.74619E-002	  3.65013E-004	 -1.84621E-002	 -1.94482E-002
  3.84000E-002	  1.38214E-002	  9.07716E-003	  8.76754E-002	  1.45426E-001	  1.23041E-001	 -7.09590E-002	 -6.26242E-002	 -1.18421E-002
  4.16000E-002	 -9.13864E-002	 -4.92510E-002	  4.57213E-003	  1.37709E-001	  4.10671E-002	  9.72925E-002	 -1.13392E-002	 -2.32513E-002
  4.48000E-002	  3.77323E-002	  1.78264E-002	 -9.07522E-002	  1.42190E-001	  5.54516E-003	 -1.97520E-002	  2.57000E-002	 -3.02315E-002
  4.80000E-002	 -2.44360E-002	  9.07716E-003	 -5.65332E-002	  1.46546E-001	 -6.00339E-002	  1.31668E-002	  4.99179E-002	  9.70016E-003
  5.12000E-002	  3.05806E-002	  4.71856E-003	 -6.02012E-002	  1.47108E-001	  4.24316E-002	 -2.43257E-002	  1.43016E-002	 -1.01330E-004
  5.76000E-002	  9.06034E-003	 -3.46536E-002	  9.45884E-003	  1.52709E-001	  4.17722E-003	 -1.06096E-002	  6.70111E-002	  2.75100E-003
  6.40000E-002	 -1.48733E-002	  3.09667E-002	 -2.35380E-002	  1.39578E-001	 -1.63162E-002	  4.51693E-002	 -1.98884E-002	  1.28926E-002
  7.04000E-002	  1.86019E-002	  1.49262E-002	 -1.00948E-002	  1.26510E-001	  7.85365E-005	  6.80296E-002	 -3.34219E-002	 -3.58751E-003
  7.68000E-002	  3.29484E-002	 -3.31953E-002	 -7.65064E-003	  1.53891E-001	 -2.04149E-002	  3.96829E-002	  2.78351E-002	 -9.61723E-003
  8.32000E-002	  3.05573E-002	  3.43879E-004	  4.85662E-002	  1.44743E-001	 -3.68096E-002	  2.50523E-002	  4.56423E-002	 -1.59557E-002
  8.96000E-002	 -1.24822E-002	 -2.44460E-002	 -5.20643E-003	  1.46735E-001	 -9.41912E-002	 -1.06096E-002	 -8.49173E-003	 -1.53218E-002
  9.60000E-002	 -7.70004E-003	 -6.09017E-002	  1.06809E-002	  1.32048E-001	 -4.22745E-002	  1.27771E-003	  4.13686E-002	 -1.91330E-002
  1.02400E-001	  7.36417E-002	  9.85454E-003	 -1.31535E-002	  1.38587E-001	  7.60655E-003	  2.18870E-003	 -2.08453E-003	  1.76597E-002
  1.15200E-001	 -3.51572E-002	  7.66713E-003	  3.34488E-003	  1.42445E-001	 -8.78840E-003	  2.18870E-003	  3.49545E-002	 -2.46527E-003
  1.28000E-001	  7.88410E-003	  5.06862E-002	 -1.52739E-003	  1.37249E-001	  8.00176E-002	 -5.63333E-002	  1.10928E-002	 -1.46751E-002
  1.40800E-001	  1.98400E-002	  4.04783E-002	 -3.05274E-004	  1.40512E-001	 -1.27405E-003	  5.38912E-003	  1.07491E-002	 -1.35659E-002
  1.53600E-001	 -5.26741E-003	  6.19110E-003	 -1.43597E-002	  1.41290E-001	  2.67340E-002	 -1.15274E-002	 -5.98985E-003	  4.18199E-003
  1.66400E-001	 -2.89875E-003	  2.80648E-002	  2.84146E-002	  1.53207E-001	  8.97280E-003	  8.17093E-004	  1.39545E-002	 -7.54430E-003
  1.79200E-001	  3.65549E-002	  1.71280E-002	  5.19427E-003	  1.41632E-001	  1.45844E-003	  3.78505E-002	 -8.83904E-003	 -1.13555E-002
  1.92000E-001	  6.28573E-002	  1.56697E-002	  2.16929E-002	  1.56443E-001	 -2.38171E-002	  4.93192E-003	 -1.13321E-002	 -5.96784E-003
  2.04800E-001	  1.87065E-002	  5.43619E-002	  3.20905E-002	  1.43081E-001	 -9.05189E-004	  2.41418E-002	 -1.41758E-002	 -2.29721E-003
  2.30400E-001	  1.09118E-002	  4.41459E-003	 -7.01768E-003	  1.45197E-001	  3.19366E-003	  2.32273E-002	 -1.27512E-002	 -5.69605E-003
  2.56000E-001	  1.80857E-002	  3.10288E-002	  9.78663E-003	  1.42672E-001	 -2.78893E-002	  1.28144E-003	  2.50133E-002	  9.35006E-003
  2.81600E-001	 -1.47944E-002	  3.97787E-002	 -9.75149E-003	  1.44912E-001	  1.75396E-002	  6.08211E-003	 -2.87660E-002	 -2.21797E-003
  3.07200E-001	 -2.25660E-002	  1.16883E-002	 -2.79810E-004	  1.47526E-001	 -1.18355E-002	  8.82535E-003	 -6.15021E-003	 -5.14960E-003
  3.32800E-001	  5.53148E-003	 -1.63838E-002	  1.85896E-003	  1.43497E-001	  1.82738E-003	  4.31158E-002	 -5.43790E-003	 -5.63317E-003
  3.58400E-001	  3.18355E-002	 -9.10979E-003	 -2.74727E-002	  1.39945E-001	  2.57373E-002	  2.16271E-002	 -3.12289E-003	  2.30027E-004
  3.84000E-001	  3.36056E-002	  2.19176E-003	  1.40805E-002	  1.45359E-001	 -1.18186E-002	  2.52848E-002	  1.27260E-002	 -5.87905E-003
  4.09600E-001	 -9.91351E-003	  6.98842E-003	 -4.96496E-003	  1.40679E-001	  1.21471E-002	  3.00858E-002	 -1.06402E-003	 -8.34761E-003
  4.60800E-001	 -6.32624E-003	  2.81344E-002	 -4.18499E-003	  1.50714E-001	  9.92673E-003	  8.13985E-003	 -3.02289E-003	 -1.03996E-002
  5.12000E-001	 -1.24427E-003	  8.06439E-003	 -2.38935E-002	  1.44338E-001	  2.08578E-002	  1.51122E-002	  1.14906E-002	 -4.26706E-003
  5.63200E-001	 -2.21700E-002	  1.48091E-002	 -1.07545E-002	  1.44459E-001	  1.57338E-002	  3.45349E-003	 -5.60504E-003	 -5.61404E-003
  6.14400E-001	  2.89556E-003	  1.86372E-002	 -1.12128E-002	  1.44155E-001	  1.14466E-002	  9.24869E-004	 -7.20775E-003	  2.70552E-003
  6.65600E-001	 -2.04428E-002	 -1.16229E-002	  3.98383E-004	  1.41627E-001	 -1.53377E-003	  7.21137E-003	 -1.14817E-002	 -8.68223E-004
  7.16800E-001	  1.09437E-002	  1.16923E-002	 -2.65720E-003	  1.46403E-001	  1.84318E-002	  1.84128E-002	  8.01803E-003	  2.73689E-003
  7.68000E-001	  4.06858E-003	  5.84142E-003	 -2.66435E-002	  1.40814E-001	 -2.11919E-002	 -1.27773E-002	 -4.53656E-003	 -1.22477E-003
  8.19200E-001	 -1.25863E-002	  2.36945E-002	 -3.13866E-003	  1.41814E-001	  7.66226E-003	  1.21693E-002	  5.53465E-003	  5.70722E-003
  9.21600E-001	 -4.53731E-003	  3.36824E-003	 -4.64881E-004	  1.41351E-001	  1.82068E-003	  7.53997E-003	 -9.44426E-003	 -4.93023E-004
  1.02400E+000	  1.86304E-002	 -6.02010E-003	 -9.47934E-003	  1.40118E-001	 -1.25370E-003	  1.40553E-002	  2.47511E-003	 -8.69396E-004
  1.12640E+000	 -4.53731E-003	  1.67492E-002	  4.11874E-003	  1.41106E-001	 -6.46306E-003	  8.11149E-003	 -2.95643E-003	  9.84425E-004
  1.22880E+000	 -1.42102E-003	  2.71251E-003	 -1.32386E-002	  1.44034E-001	  9.67743E-003	  1.40553E-002	 -5.02494E-005	  4.77619E-003
  1.33120E+000	 -5.90499E-003	  1.00776E-002	  5.34104E-003	  1.41494E-001	 -1.24410E-002	  5.25387E-003	  1.13027E-002	  4.14230E-003
  1.43360E+000	 -2.96072E-003	  1.53820E-002	 -3.99508E-003	  1.42221E-001	  7.52524E-003	  1.61558E-002	  4.56759E-003	  4.38827E-003
  1.53600E+000	  1.48019E-002	  1.15360E-002	 -7.27995E-003	  1.42719E-001	  1.76702E-002	  5.98280E-003	  4.92375E-003	 -1.22596E-003
  1.63840E+000	  7.39470E-003	  4.35476E-003	 -4.35921E-003	  1.40728E-001	  1.35839E-002	  8.34311E-005	  3.36727E-003	 -1.88890E-004
  1.84320E+000	 -3.44232E-003	 -3.65690E-003	  9.34602E-004	  1.43418E-001	  5.38433E-003	  1.00138E-002	 -4.49628E-004	  5.96110E-003
  2.04800E+000	 -4.24194E-003	  7.05402E-003	  6.24450E-003	  1.43406E-001	  5.40987E-003	  4.94153E-003	 -7.50706E-003	 -1.74413E-003
  2.25280E+000	  1.13039E-002	  2.35945E-003	 -1.03186E-002	  1.38707E-001	 -3.54122E-003	  4.91296E-003	 -2.17385E-003	 -1.69078E-004
  2.45760E+000	 -5.56479E-003	 -3.95837E-003	 -6.15467E-003	  1.38855E-001	  7.97698E-004	  6.32729E-003	  2.60289E-003	  1.83193E-003
  2.66240E+000	 -1.08938E-002	 -9.88423E-004	  3.12245E-003	  1.42111E-001	 -2.99442E-003	  8.45612E-003	  7.13228E-003	 -3.43976E-003
  2.86720E+000	 -7.77713E-003	  6.46920E-003	 -7.41532E-003	  1.38853E-001	  5.67445E-003	  6.36993E-003	  1.86819E-003	 -5.80731E-003
  3.07200E+000	 -5.63219E-003	  1.16020E-002	  2.38623E-003	  1.40974E-001	 -4.89038E-003	  6.16989E-003	  7.87189E-004	 -2.85701E-003
  3.27680E+000	 -5.42812E-003	  5.42851E-003	  3.34811E-003	  1.38758E-001	  2.15877E-003	  1.37018E-002	  4.31371E-003	 -7.91745E-004
  3.68640E+000	  4.55161E-003	 -6.45454E-003	  3.68908E-003	  1.37213E-001	  2.52185E-003	  7.65568E-003	 -1.20592E-003	  1.64064E-003
  4.09600E+000	 -1.10716E-003	  8.81210E-003	 -1.63964E-004	  1.37104E-001	  2.83581E-004	  3.85407E-003	  1.31022E-003	 -2.75350E-003
  4.50560E+000	 -7.33378E-004	  7.09252E-003	 -2.73989E-003	  1.37018E-001	 -2.11273E-003	  9.27096E-003	  1.14200E-003	  9.30485E-004
  4.91520E+000	  9.47085E-003	  6.43917E-003	  5.10849E-003	  1.36722E-001	  3.07292E-003	  9.25648E-003	  3.39215E-003	  3.79065E-003
  5.32480E+000	 -6.52699E-003	 -1.19746E-003	  3.08066E-003	  1.35915E-001	  9.39897E-003	  1.30156E-002	  1.66648E-003	 -2.03909E-004
  5.73440E+000	  7.86359E-003	  9.35092E-004	 -1.57759E-003	  1.36707E-001	  3.52987E-003	  5.81239E-003	  1.10220E-004	 -2.52407E-003
  6.14400E+000	  2.30898E-003	  9.14689E-003	  8.29397E-004	  1.34167E-001	 -1.33119E-002	  4.91172E-003	  1.46730E-003	 -2.08982E-003
  6.55360E+000	  4.96891E-003	  5.89729E-003	  2.61908E-003	  1.34206E-001	  1.82068E-003	  5.68764E-003	 -4.27412E-004	  2.38610E-004
  7.37280E+000	 -2.95525E-003	  6.34696E-003	  7.25380E-003	  1.32832E-001	  9.27606E-004	  3.22147E-003	 -2.21600E-003	 -1.24734E-003
  8.19200E+000	  1.29326E-003	  2.75576E-003	 -3.24208E-004	  1.30911E-001	  4.43983E-003	  3.44313E-003	 -1.39427E-003	 -3.12275E-004
  9.01120E+000	 -1.01060E-003	 -1.63911E-004	 -4.62797E-003	  1.32658E-001	  1.13058E-002	  7.61184E-003	 -4.79125E-004	  1.21824E-003
  9.83040E+000	 -3.49751E-003	  5.08783E-003	 -7.11248E-003	  1.30218E-001	  6.29615E-003	  6.41103E-003	  1.28032E-003	 -1.95001E-003
  1.06496E+001	  7.01810E-004	 -4.13625E-004	 -3.32537E-003	  1.30665E-001	  2.66863E-003	  3.56523E-003	  1.70782E-003	 -1.15294E-003
  1.14688E+001	 -2.90685E-003	 -9.89893E-004	 -2.57347E-003	  1.29735E-001	  8.18681E-003	  3.30782E-003	 -3.79316E-003	  2.14987E-003
  1.22880E+001	  6.36068E-003	  2.75455E-003	 -2.62125E-003	  1.30542E-001	 -1.42667E-003	  4.97358E-003	  3.86256E-003	  1.12569E-003
  1.31072E+001	  4.82597E-003	  2.87055E-003	 -1.46257E-003	  1.29092E-001	  6.96453E-003	  4.49716E-003	  3.89493E-004	 -1.01089E-005
  1.47456E+001	  6.71979E-004	  1.16085E-003	 -5.75005E-004	  1.28235E-001	  7.65830E-003	  5.85816E-003	  3.95064E-004	  1.02475E-003
  1.63840E+001	  2.58057E-003	 -1.00006E-003	  2.07796E-003	  1.26846E-001	  8.42569E-003	  9.36502E-003	  8.72609E-004	  1.74893E-004
  1.80224E+001	  4.84863E-004	 -3.21858E-003	 -2.11167E-004	  1.27239E-001	  6.93009E-003	  8.55680E-003	  1.19027E-005	 -1.69877E-004
  1.96608E+001	  7.78823E-004	  3.38239E-003	 -1.48838E-003	  1.27296E-001	  4.81853E-003	  6.99067E-003	  4.63390E-003	  1.43414E-003
  2.12992E+001	 -2.41873E-003	  2.11230E-004	  3.34282E-004	  1.26889E-001	  4.88230E-003	  6.53690E-003	  8.99740E-004	 -8.31180E-004
  2.29376E+001	  9.17673E-004	  2.27591E-003	 -2.04178E-003	  1.25845E-001	  6.15447E-003	  5.21010E-003	  1.56153E-003	  1.47446E-004
  2.45760E+001	  1.70653E-003	 -2.85157E-003	  2.02004E-003	  1.25402E-001	  5.23928E-003	  6.09057E-003	 -5.09451E-004	  1.61711E-003
  2.62144E+001	 -1.82399E-003	  1.76189E-003	 -2.64972E-004	  1.24431E-001	  3.69502E-003	  6.11433E-003	 -9.76639E-004	 -1.15824E-004
  2.94912E+001	  9.58498E-004	  1.43134E-003	  5.16568E-004	  1.23126E-001	  3.12503E-003	  5.11072E-003	 -8.49155E-004	  5.61321E-005
  3.27680E+001	 -5.22441E-004	 -2.13737E-003	 -1.02484E-003	  1.23641E-001	  4.43513E-003	  6.20141E-003	  1.08016E-004	  1.10103E-003
  3.60448E+001	 -9.79693E-004	  1.64256E-004	 -5.92870E-004	  1.24362E-001	  2.63140E-003	  4.72830E-003	  8.27278E-005	  7.83982E-004
  3.93216E+001	 -1.76085E-003	 -4.19060E-004	 -5.44237E-003	  1.24083E-001	  6.34961E-003	  7.06981E-003	 -7.80027E-004	 -1.92707E-003
  4.25984E+001	 -1.23177E-003	 -9.63605E-004	  9.90597E-004	  1.23573E-001	  4.70326E-003	  8.65287E-003	 -7.53536E-004	 -1.24130E-003
  4.58752E+001	  2.21355E-004	  2.38014E-003	 -1.90870E-003	  1.23121E-001	  3.88737E-003	  4.27458E-003	 -4.51563E-004	 -1.00884E-003
  4.91520E+001	  5.14107E-004	 -1.98426E-003	 -3.68125E-003	  1.23399E-001	  8.49391E-003	  7.75740E-003	  1.14286E-003	 -1.74517E-004
  5.24288E+001	  2.52395E-003	  1.36448E-004	 -2.29208E-004	  1.23439E-001	  3.68337E-003	  7.33513E-003	  4.21810E-004	 -6.91789E-004
  5.89824E+001	  5.80447E-004	  3.81546E-003	  1.49531E-003	  1.23105E-001	  6.96468E-003	  5.68739E-003	 -3.36199E-004	  2.12135E-004
  6.55360E+001	  9.66864E-004	  2.97600E-003	  1.06067E-004	  1.23466E-001	  1.16386E-003	  5.51676E-003	  1.97459E-003	 -5.96252E-004
  7.20896E+001	 -2.92462E-004	  5.21085E-004	 -1.46872E-003	  1.23026E-001	  4.57290E-003	  5.70072E-003	  1.50897E-004	  1.05281E-004
  7.86432E+001	  9.17589E-004	  6.39232E-004	  8.35626E-004	  1.23534E-001	  4.02478E-003	  4.58422E-003	  1.05673E-003	  8.91498E-005
  8.51968E+001	 -9.59545E-004	  1.96542E-003	  2.96534E-003	  1.23098E-001	  2.92290E-003	  6.90538E-003	  1.16718E-003	  3.19228E-004
  9.17504E+001	 -4.53414E-004	  1.56372E-003	  9.88622E-004	  1.22581E-001	  3.08474E-003	  6.05476E-003	  9.22213E-004	  1.29849E-003
  9.83040E+001	 -6.63826E-004	  5.90955E-004	 -9.11589E-004	  1.22384E-001	  6.56757E-003	  7.51002E-003	 -3.41206E-004	  5.30422E-004
  1.04858E+002	  2.14661E-004	  4.76372E-005	  5.58856E-004	  1.22345E-001	  5.32857E-003	  5.01926E-003	 -6.85405E-004	  6.75429E-004
  1.17965E+002	 -6.25816E-004	  2.57400E-003	 -3.44903E-004	  1.22100E-001	  3.69302E-003	  4.58505E-003	 -5.10904E-004	  2.94799E-004
  1.31072E+002	  2.12272E-003	  1.70168E-003	 -1.42938E-003	  1.22571E-001	  2.51510E-003	  5.17281E-003	  5.33638E-004	  1.21133E-004
  1.44179E+002	  2.32443E-003	  9.90951E-004	 -7.90362E-004	  1.21479E-001	  4.30173E-003	  5.67730E-003	  1.45503E-003	 -2.32800E-004
  1.57286E+002	  6.39327E-004	  1.66361E-003	  9.64081E-005	  1.21958E-001	  3.17744E-003	  3.92553E-003	 -8.09900E-005	 -1.90426E-004
  1.70394E+002	  8.21636E-004	  1.74104E-003	  3.89138E-004	  1.21226E-001	  4.53052E-003	  5.11007E-003	 -4.91972E-004	  1.11341E-004
  1.83501E+002	 -6.55206E-004	  1.14361E-003	 -7.61107E-004	  1.22241E-001	  5.77959E-003	  5.06912E-003	  6.01097E-004	 -9.43944E-004
  1.96608E+002	  1.60343E-003	  1.48489E-003	 -8.92995E-004	  1.21998E-001	  4.54403E-003	  5.19135E-003	 -5.80038E-004	  3.61885E-004
  2.09715E+002	  1.08478E-003	  2.09602E-003	 -4.02214E-004	  1.20151E-001	  3.63369E-003	  4.98863E-003	 -5.02768E-004	  2.75801E-004
  2.35930E+002	 -1.36451E-004	  8.05075E-004	 -7.32726E-004	  1.20098E-001	  4.75528E-003	  5.91351E-003	  4.44064E-004	  4.13444E-004
  2.62144E+002	 -6.20817E-004	  5.73559E-004	  1.06544E-004	  1.20330E-001	  4.07644E-003	  5.63070E-003	 -1.16248E-003	 -6.10675E-005
  2.88358E+002	  6.38253E-007	  7.69587E-004	 -3.12338E-004	  1.19673E-001	  3.47545E-003	  6.12854E-003	 -5.07788E-004	 -1.41251E-004
  3.14573E+002	 -8.22816E-004	  2.49028E-004	  3.03468E-004	  1.18643E-001	  3.85750E-003	  5.06327E-003	  6.36501E-004	 -1.29504E-004
  3.40787E+002	  3.06765E-005	  5.58308E-004	  9.89707E-005	  1.18959E-001	  3.53127E-003	  5.10847E-003	 -5.75106E-004	 -5.50687E-005
  3.67002E+002	 -2.65512E-004	 -1.17134E-003	 -2.75268E-004	  1.18533E-001	  3.26396E-003	  4.62289E-003	 -7.50132E-004	 -5.97754E-004
  3.93216E+002	  9.74348E-004	  5.56489E-004	 -3.66265E-004	  1.18364E-001	  4.47095E-003	  5.03031E-003	 -3.10403E-004	  7.24668E-005
  4.19430E+002	  2.02375E-006	  7.54844E-004	  3.40429E-004	  1.19369E-001	  3.95970E-003	  4.99533E-003	 -6.86821E-004	 -3.06965E-004
  4.71859E+002	 -3.21358E-005	  5.54955E-005	 -1.09133E-004	  1.17879E-001	  3.16860E-003	  5.16349E-003	 -3.21203E-004	  3.78917E-004
  5.24288E+002	  1.13962E-004	  1.73985E-003	 -4.12775E-005	  1.17557E-001	  3.72380E-003	  5.43413E-003	  3.41320E-004	 -3.16849E-004
  5.76717E+002	 -2.18511E-004	 -1.51317E-004	 -2.55546E-004	  1.17846E-001	  3.55284E-003	  5.78786E-003	 -6.55942E-004	  2.56616E-004
  6.29146E+002	  6.58759E-004	  1.08697E-003	 -6.97272E-005	  1.16551E-001	  3.63962E-003	  5.22541E-003	  9.97391E-005	  4.61093E-005
  6.81574E+002	 -6.38010E-004	  6.62386E-004	 -3.11694E-004	  1.17178E-001	  3.31072E-003	  4.98667E-003	 -9.24481E-005	  2.95922E-005
  7.34003E+002	  9.16667E-004	  6.19583E-004	  3.85064E-004	  1.15324E-001	  3.73791E-003	  5.51730E-003	  1.84875E-004	  9.55035E-005
  7.86432E+002	 -7.80150E-004	  1.55558E-003	  3.93549E-006	  1.15038E-001	  4.19113E-003	  4.98764E-003	  7.19245E-004	  1.30719E-004
  8.38861E+002	  9.33348E-004	  9.22639E-004	  1.09236E-004	  1.10265E-001	  3.43202E-003	  4.24195E-003	  1.35015E-004	  9.10351E-005
  9.43718E+002	 -2.33013E-004	  7.18311E-004	 -5.06929E-004	  1.09018E-001	  3.94972E-003	  3.29663E-003	  1.97344E-004	 -1.04380E-004
  1.04858E+003	 -1.35467E-004	  3.71891E-005	  3.39702E-004	  1.06847E-001	  3.29858E-003	  4.07373E-003	 -8.74376E-005	  2.31129E-005
  1.15343E+003	  3.89923E-004	  1.23082E-003	 -9.02326E-005	  1.05788E-001	  3.98533E-003	  4.61362E-003	 -2.42529E-004	 -1.75700E-004
  1.25829E+003	 -6.93255E-004	  1.06918E-003	 -8.30156E-005	  1.05294E-001	  3.48123E-003	  4.73790E-003	 -1.94276E-004	 -1.50514E-004
  1.36315E+003	 -2.36697E-004	  1.37382E-003	  4.31699E-004	  1.03483E-001	  3.57347E-003	  4.10027E-003	  2.38236E-004	  2.12247E-005
  1.46801E+003	  8.64844E-004	  1.23208E-003	 -2.79272E-004	  1.02142E-001	  3.68317E-003	  4.28419E-003	  2.91089E-004	  1.05152E-004
  1.57286E+003	  6.66179E-004	  2.85854E-004	 -9.77195E-005	  1.00291E-001	  4.02944E-003	  4.26486E-003	  2.69900E-004	  5.19749E-005
  1.67772E+003	  1.21244E-004	  4.91263E-004	 -2.50115E-004	  9.20334E-002	  2.47694E-003	  2.69687E-003	 -5.43995E-005	  1.27540E-004
  1.88744E+003	 -5.77808E-004	  9.87794E-005	 -1.45336E-004	  8.92213E-002	  2.20448E-003	  3.13221E-003	 -1.04729E-004	  1.71482E-004
  2.09715E+003	 -2.02267E-004	  8.38044E-004	 -2.89528E-004	  8.53948E-002	  2.38814E-003	  3.25328E-003	 -2.67894E-004	  1.26014E-005
  2.30687E+003	  2.62021E-004	  1.15877E-003	  1.67027E-004	  8.13012E-002	  2.72156E-003	  3.47436E-003	  2.40418E-004	 -9.78732E-005
  2.51658E+003	  1.42594E-004	  2.61374E-004	 -1.21917E-004	  7.92670E-002	  2.74823E-003	  3.31422E-003	  4.34329E-004	  3.09114E-005
  2.72630E+003	 -3.50450E-004	  1.95433E-004	 -1.32792E-004	  7.70097E-002	  2.15915E-003	  3.43697E-003	 -2.00603E-004	  1.38451E-004
  2.93601E+003	 -1.05705E-004	  5.85724E-004	 -1.25058E-004	  7.30176E-002	  1.91571E-003	  3.52620E-003	  1.15983E-004	  9.62578E-005
"Count Rate"
       0.11679	       1.38169	       1.67167	       2.07253	       7.89779	       2.55868	       3.15570	       2.66103	       3.87213
       0.23357	       1.54374	       1.76549	       2.03841	       7.17283	       2.43075	       2.78896	       2.48192	       4.08536
       0.35036	       1.39022	       1.94460	       2.07253	       8.05984	       2.29428	       2.72073	       2.69514	       4.11947
       0.46714	       1.59491	       1.67167	       2.15782	       7.07901	       2.11517	       3.07041	       2.63544	       3.96595
       0.58393	       1.53521	       1.73990	       2.22605	       7.42017	       2.24311	       2.78043	       2.76337	       3.88919
       0.70072	       1.59491	       1.91901	       2.02136	       8.40952	       2.02136	       3.13865	       2.61838	       4.19623
       0.81750	       1.45845	       1.64608	       2.14929	       8.17072	       2.50751	       2.66956	       2.70367	       3.83802
       0.93429	       1.44992	       1.85931	       1.89342	       8.08543	       2.40516	       2.84866	       2.60985	       4.60562
       1.05107	       1.45845	       1.91048	       1.86784	       8.58010	       2.35398	       2.84013	       2.43075	       4.16212
       1.16786	       1.61197	       1.79108	       2.05547	       8.49481	       2.09812	       2.72073	       2.87425	       4.14506
       1.28465	       1.35610	       1.75696	       2.05547	       8.39247	       2.24311	       2.88278	       2.67808	       4.11947
       1.40143	       1.32198	       1.95313	       1.93607	       7.94896	       1.99577	       2.88278	       2.78896	       4.19623
       1.51822	       1.39874	       1.75696	       2.19194	       8.65686	       2.05547	       2.63544	       2.88278	       4.39240
       1.63500	       1.44139	       2.00430	       1.99577	       8.49481	       2.31987	       3.13012	       2.84013	       4.14506
       1.75179	       1.46698	       1.86784	       1.96165	       9.70592	       2.08959	       2.38810	       2.72073	       4.18770
       1.86858	       1.48403	       1.93607	       2.02989	       8.47776	       2.25164	       2.98513	       2.68661	       4.09389
       1.98536	       1.56932	       1.74843	       1.92754	       8.35835	       2.57574	       3.25805	       2.55015	       4.17918
       2.10215	       1.56932	       1.81666	       2.20046	       9.54387	       2.38810	       2.55868	       2.61838	       3.81243
       2.21894	       1.66314	       1.71431	       2.11517	       7.99161	       2.26017	       2.93395	       2.95101	       4.17065
       2.33572	       1.40727	       1.96165	       2.15782	       9.66328	       2.13223	       2.26870	       2.42222	       4.25594
       2.45251	       1.45845	       1.95313	       2.08106	       8.95538	       2.51603	       3.01071	       2.80602	       4.11947
       2.56929	       1.56079	       1.94460	       1.85078	       9.64622	       2.49045	       2.74632	       2.90837	       4.14506
       2.68608	       1.68873	       1.91901	       2.05547	      10.20913	       2.43927	       2.66103	       2.84866	       3.94037
       2.80287	       1.44139	       1.70579	       1.84225	       9.97885	       1.92754	       2.63544	       2.78043	       4.00007
       2.91965	       1.32198	       1.94460	       2.14929	       9.61210	       2.20899	       2.54162	       2.50751	       4.06830
       3.03644	       1.40727	       1.85931	       2.02136	       9.20272	       2.27722	       2.55868	       2.51603	       4.46063
       3.15322	       1.58638	       2.04694	       2.01283	       9.16007	       1.95313	       2.73779	       2.66103	       4.17065
       3.27001	       1.63755	       1.87636	       2.20899	       9.45858	       2.20046	       2.75484	       2.72073	       4.08536
       3.38680	       1.49256	       1.82519	       2.01283	      10.03002	       2.18341	       2.56721	       2.77190	       4.28152
       3.50358	       1.47550	       1.78255	       2.13223	      10.27736	       2.26870	       2.67808	       2.63544	       4.17065
       3.62037	       1.56932	       1.91901	       2.09812	       9.58652	       2.27722	       2.83160	       2.68661	       3.98301
       3.73715	       1.70579	       1.74843	       2.08959	      10.74645	       2.09812	       2.89131	       2.66103	       3.84655
       3.85394	       1.42433	       1.70579	       2.02989	      10.68675	       1.94460	       2.45633	       2.51603	       4.35828
       3.97073	       1.24522	       1.88489	       1.91048	      10.41382	       2.03841	       2.57574	       3.01071	       4.15359
       4.08751	       1.55227	       1.83372	       2.02136	       9.39035	       2.25164	       2.49898	       3.00218	       3.99154
       4.20430	       1.36463	       2.01283	       2.01283	      11.38612	       2.30281	       2.49045	       2.84013	       4.14506
       4.32108	       1.67167	       1.84225	       2.24311	      10.41382	       2.06400	       2.63544	       2.61838	       3.93184
       4.43787	       1.40727	       1.84225	       1.97018	       9.84239	       2.21752	       2.75484	       2.66103	       4.16212
       4.55466	       1.62903	       1.81666	       2.16635	      10.86586	       2.20899	       2.73779	       2.83160	       3.85508
       4.67144	       1.54374	       1.57785	       2.14076	      10.33706	       1.99577	       2.51603	       2.79749	       4.17918
       4.78823	       1.31346	       1.80813	       1.98724	       9.99591	       2.18341	       2.41369	       2.85719	       4.06830
       4.90501	       1.47550	       1.68873	       2.21752	      10.61852	       2.20899	       2.66103	       2.89984	       4.21329
       5.02180	       1.42433	       1.59491	       2.20046	      10.57587	       1.96165	       2.46486	       2.70367	       4.21329
       5.13859	       1.47550	       1.58638	       2.17488	      10.32001	       2.14076	       2.50751	       2.75484	       4.34975
       5.25537	       1.42433	       1.65461	       1.99577	      10.52470	       2.02989	       2.50751	       2.47339	       3.79537
       5.37216	       1.46698	       1.92754	       2.13223	      11.01085	       1.79108	       2.43927	       2.78043	       4.10242
       5.48894	       1.51815	       1.85078	       2.00430	      11.41171	       2.06400	       2.69514	       2.58427	       4.01713
       5.60573	       1.65461	       1.89342	       2.10665	      11.06202	       2.20899	       2.91689	       2.95954	       4.08536
       5.72252	       1.44139	       1.90195	       1.86784	      11.40318	       2.02989	       2.46486	       2.85719	       4.47769
       5.83930	       1.46698	       1.72284	       2.25164	      11.20701	       2.14076	       2.53309	       2.63544	       4.02565
       5.95609	       1.50962	       1.70579	       1.94460	      10.22619	       1.96165	       2.35398	       2.51603	       3.89772
       6.07287	       1.56932	       1.80813	       2.20899	      10.86586	       2.12370	       2.68661	       2.84013	       4.08536
       6.18966	       1.51815	       1.89342	       2.18341	      10.23472	       1.79960	       2.49898	       2.78896	       4.07683
       6.30645	       1.37316	       1.78255	       2.09812	      11.39465	       1.97871	       2.83160	       2.87425	       4.02565
       6.42323	       1.37316	       1.88489	       2.06400	      13.09191	       2.08106	       2.41369	       2.75484	       3.75273
       6.54002	       1.42433	       1.92754	       1.72284	      12.09402	       1.95313	       2.17488	       2.86572	       3.86361
       6.65680	       1.47550	       1.48403	       2.10665	       9.77415	       1.93607	       2.38810	       2.88278	       4.09389
       6.77359	       1.36463	       1.96165	       2.16635	      12.29872	       2.17488	       2.57574	       2.94248	       3.92331
       6.89038	       1.44992	       1.54374	       2.03841	      12.87016	       1.98724	       2.73779	       2.77190	       4.38387
       7.00716	       1.52668	       2.11517	       2.14929	      14.88298	       1.80813	       2.30281	       2.34546	       4.17065
       7.12395	       1.42433	       1.90195	       1.92754	      13.31366	       1.85931	       2.50751	       2.38810	       3.96595
       7.24074	       1.57785	       1.94460	       2.14929	      12.60576	       2.00430	       2.20046	       2.78896	       4.02565
       7.35752	       1.50109	       1.94460	       1.91048	      12.85310	       1.97871	       2.39663	       2.84013	       3.82949
       7.47431	       1.49256	       1.81666	       2.13223	      12.22196	       1.94460	       2.57574	       2.54162	       4.32417
       7.59109	       1.33051	       2.26870	       2.02989	      12.50341	       2.08959	       2.54162	       2.84866	       4.11947
       7.70788	       1.37316	       1.82519	       2.01283	      13.40748	       1.91901	       2.63544	       2.72926	       4.48622
       7.82467	       1.53521	       1.85078	       2.12370	      12.11961	       1.97018	       2.43075	       2.78896	       4.07683
       7.94145	       1.51815	       1.91901	       2.08106	      13.18573	       2.01283	       2.41369	       2.86572	       3.94037
       8.05824	       1.50962	       1.81666	       1.95313	      13.18573	       1.99577	       2.46486	       2.83160	       3.95742
       8.17502	       1.63755	       1.87636	       2.22605	      13.81687	       2.00430	       2.75484	       2.65250	       4.03418
       8.29181	       1.44139	       1.74843	       2.09812	      14.66123	       1.83372	       2.52456	       2.49045	       4.17918
       8.40860	       1.41580	       1.82519	       2.08106	      14.90004	       1.95313	       2.57574	       2.90837	       3.97448
       8.52538	       1.38169	       1.86784	       2.26870	      16.02586	       1.88489	       2.56721	       2.61838	       3.98301
       8.64217	       1.29640	       1.89342	       1.68020	      13.24543	       2.03841	       2.29428	       3.01924	       4.00860
       8.75895	       1.50109	       1.90195	       2.02136	      15.85528	       1.79108	       2.50751	       2.67808	       4.23888
       8.87574	       1.35610	       1.68873	       1.87636	      15.73588	       2.04694	       2.47339	       2.68661	       4.16212
       8.99253	       1.44992	       1.69726	       1.99577	      15.12179	       1.83372	       2.46486	       2.43927	       4.12800
       9.10931	       1.56932	       1.72284	       2.06400	      13.57806	       1.91901	       2.10665	       2.53309	       3.88919
       9.22610	       1.62903	       2.06400	       2.24311	      14.67829	       1.96165	       2.44780	       2.51603	       3.97448
       9.34288	       1.48403	       2.02136	       2.14076	      14.12391	       1.86784	       2.21752	       2.68661	       3.83802
       9.45967	       1.57785	       2.04694	       2.08106	      14.29449	       1.85078	       2.17488	       2.62691	       4.11094
       9.57646	       1.41580	       1.93607	       2.12370	      13.33072	       1.84225	       2.35398	       2.70367	       4.02565
       9.69324	       1.51815	       1.62903	       2.13223	      14.61859	       1.62903	       2.37104	       2.71220	       3.87213
       9.81003	       1.67167	       1.71431	       2.27722	      14.63564	       2.21752	       2.50751	       2.75484	       4.17918
       9.92681	       1.65461	       1.91901	       2.20046	      14.29449	       1.88489	       2.49045	       2.70367	       3.86361
      10.04360	       1.55227	       1.83372	       1.90195	      11.67611	       2.02989	       2.60985	       2.49045	       3.90625
      10.16039	       1.43286	       1.91048	       2.11517	      13.33925	       1.66314	       2.26870	       2.59279	       3.87213
      10.27717	       1.27081	       1.62050	       2.09812	      12.71663	       1.87636	       2.34546	       2.55868	       3.94037
      10.39396	       1.65461	       2.00430	       2.09812	      13.64629	       1.85931	       2.54162	       2.61838	       3.95742
      10.51074	       1.31346	       1.78255	       1.95313	      14.10685	       1.79960	       2.52456	       2.70367	       4.29005
      10.62753	       1.67167	       1.86784	       2.11517	      12.17931	       1.78255	       2.42222	       2.99365	       4.17918
      10.74432	       1.50962	       1.92754	       1.96165	      11.33495	       2.02136	       2.25164	       2.33693	       3.75273
      10.86110	       1.51815	       1.88489	       2.04694	      11.18143	       2.03841	       2.52456	       2.58427	       4.15359
      10.97789	       1.30493	       1.86784	       2.16635	      12.49488	       1.77402	       2.26870	       2.81455	       4.30711
      11.09467	       1.44992	       1.71431	       1.99577	      13.51835	       1.87636	       2.43075	       2.66956	       4.23035
      11.21146	       1.42433	       1.63755	       1.85931	      14.00450	       1.79108	       2.52456	       2.71220	       4.14506
      11.32825	       1.71431	       1.69726	       2.05547	      13.22837	       1.77402	       2.43075	       2.46486	       4.44357
      11.44503	       1.50109	       1.75696	       2.07253	      11.19849	       1.81666	       2.06400	       2.64397	       3.85508
      11.56182	       1.67167	       1.63755	       2.21752	      12.40106	       1.98724	       2.23458	       2.70367	       3.82949
      11.67861	       1.27081	       1.81666	       2.12370	      12.82751	       1.89342	       2.34546	       2.77190	       3.83802
      11.79539	       1.39022	       1.75696	       2.05547	      12.62282	       1.78255	       2.40516	       2.64397	       4.36681
      11.91218	       1.50109	       1.85931	       1.96165	      13.49277	       2.11517	       2.31134	       2.65250	       4.22182
      12.02896	       1.56932	       1.99577	       2.06400	      13.01515	       2.02136	       2.26017	       2.69514	       3.94037
      12.14575	       1.54374	       1.73137	       1.91048	      13.24543	       2.13223	       2.50751	       2.57574	       3.93184
      12.26254	       1.38169	       1.78255	       2.07253	      12.31577	       1.90195	       1.95313	       2.57574	       4.04271
      12.37932	       1.32198	       1.82519	       1.97871	      12.44371	       1.58638	       2.09812	       2.78043	       3.96595
      12.49611	       1.44992	       1.90195	       1.84225	      13.17720	       1.82519	       2.44780	       2.60985	       3.66744
      12.61289	       1.41580	       1.76549	       2.27722	      14.06421	       1.91048	       2.31987	       2.72926	       3.91478
      12.72968	       1.43286	       1.85078	       2.26017	      11.42877	       1.85078	       2.30281	       2.55868	       3.85508
      12.84647	       1.50962	       1.86784	       1.95313	      13.57806	       1.88489	       2.28575	       2.62691	       3.71008
      12.96325	       1.39874	       1.83372	       2.08959	      12.95545	       1.95313	       2.40516	       2.81455	       4.24741
      13.08004	       1.38169	       1.86784	       2.15782	      13.98745	       1.88489	       2.43075	       2.80602	       3.77832
      13.19682	       1.32198	       1.87636	       1.91901	      13.89363	       1.97018	       2.20899	       2.60132	       3.82096
      13.31361	       1.25375	       1.96165	       2.06400	      12.05991	       1.95313	       2.56721	       2.63544	       4.23035
      13.43040	       1.21111	       1.82519	       2.16635	      11.88080	       1.73137	       2.20046	       2.75484	       3.99154
      13.54718	       1.27934	       1.94460	       1.85078	      12.09402	       1.80813	       2.37957	       2.59279	       3.92331
      13.66397	       1.52668	       2.15782	       2.08106	      13.04073	       1.98724	       2.20046	       2.55015	       4.48622
      13.78075	       1.40727	       1.75696	       2.19194	      12.45224	       1.77402	       2.24311	       2.50751	       4.00860
      13.89754	       1.31346	       2.10665	       2.07253	      12.21343	       1.84225	       2.39663	       2.74632	       3.76979
      14.01433	       1.54374	       1.80813	       2.08106	      13.08338	       1.88489	       2.23458	       2.79749	       4.05977
      14.13111	       1.59491	       2.19194	       2.00430	      11.63346	       1.84225	       2.23458	       2.78896	       3.89772
      14.24790	       1.66314	       2.06400	       1.99577	      12.21343	       1.67167	       2.27722	       2.66956	       3.86361
      14.36468	       1.51815	       1.82519	       2.11517	      11.96609	       1.80813	       2.38810	       2.84013	       3.93184
      14.48147	       1.44992	       2.02136	       1.97018	      11.98315	       1.87636	       2.55868	       2.69514	       3.80390
      14.59826	       1.44139	       1.92754	       1.87636	      12.17078	       1.79960	       2.31987	       2.55868	       3.88066
      14.71504	       1.43286	       1.88489	       2.01283	      12.12814	       1.91048	       2.48192	       2.85719	       4.17918
      14.83183	       1.33051	       1.81666	       1.90195	      12.95545	       1.74843	       2.47339	       2.61838	       4.14506
      14.94861	       1.62050	       1.85078	       1.91048	      11.69316	       1.86784	       2.05547	       2.78043	       4.28152
      15.06540	       1.44139	       1.73137	       2.19194	      11.96609	       1.62903	       2.08106	       2.51603	       3.91478
      15.18219	       1.49256	       1.92754	       1.91048	       9.48417	       1.80813	       2.32840	       2.47339	       4.05977
      15.29897	       1.58638	       2.04694	       2.11517	      10.77204	       1.86784	       2.19194	       2.42222	       3.56509
      15.41576	       1.46698	       1.91048	       2.21752	       9.49270	       1.97871	       2.32840	       2.91689	       4.84443
      15.53254	       1.40727	       1.97871	       2.17488	      11.05349	       1.89342	       2.30281	       2.82308	       3.86361
      15.64933	       1.46698	       1.85931	       2.16635	      11.32642	       1.85078	       1.96165	       3.20688	       3.96595
      15.76612	       1.47550	       1.93607	       1.85931	      10.73792	       1.99577	       2.10665	       2.95954	       3.59068
      15.88290	       1.36463	       1.96165	       2.20899	      10.54176	       1.73137	       2.25164	       2.82308	       4.00860
      15.99969	       1.44139	       1.86784	       2.14929	       9.88503	       1.81666	       2.44780	       2.57574	       3.90625
      16.11647	       1.59491	       2.00430	       2.27722	       9.28800	       1.58638	       2.08106	       2.61838	       3.96595
      16.23326	       1.29640	       1.82519	       2.25164	       8.97243	       1.80813	       2.10665	       2.44780	       3.95742
      16.35005	       1.49256	       2.09812	       2.11517	       9.97885	       1.91901	       2.14076	       2.72073	       3.93184
      16.46683	       1.60344	       1.99577	       1.89342	       9.92767	       1.85931	       2.24311	       2.75484	       4.40946
      16.58362	       1.52668	       2.15782	       2.10665	       8.19630	       1.73990	       2.40516	       2.79749	       3.93184
      16.70041	       1.33051	       1.84225	       2.29428	       9.28800	       1.82519	       2.07253	       2.61838	       4.07683
      16.81719	       1.58638	       1.86784	       1.85931	       9.10037	       1.95313	       2.35398	       2.62691	       4.21329
      16.93398	       1.50962	       1.80813	       2.41369	       8.94685	       1.79108	       2.37957	       2.65250	       4.14506
      17.05076	       1.43286	       1.87636	       2.04694	       8.41805	       1.63755	       2.26017	       2.80602	       4.10242
      17.16755	       1.48403	       1.97018	       1.99577	       8.42658	       1.96165	       2.47339	       2.61838	       4.11094
      17.28433	       1.48403	       1.74843	       2.08106	       8.75068	       1.79960	       2.24311	       2.95101	       4.01713
      17.40112	       1.39022	       2.04694	       2.23458	       9.30506	       1.86784	       2.31987	       2.87425	       3.71008
      17.51791	       1.50109	       2.04694	       2.02136	       9.32212	       1.93607	       2.32840	       2.69514	       3.71008
      17.63469	       1.39874	       1.92754	       2.00430	       9.10037	       1.91048	       2.41369	       2.70367	       4.09389
      17.75148	       1.56932	       1.91901	       2.03841	       8.80186	       1.85931	       2.42222	       2.49898	       4.00007
      17.86827	       1.51815	       1.78255	       2.02989	       8.14513	       1.87636	       2.51603	       3.00218	       4.29858
      17.98505	       1.49256	       1.80813	       1.97871	       9.39888	       1.92754	       2.46486	       2.76337	       3.82949
      18.10184	       1.38169	       1.83372	       1.97871	       8.93832	       2.15782	       2.27722	       2.65250	       3.88919
      18.21862	       1.57785	       1.95313	       1.96165	       8.58863	       1.81666	       2.31987	       3.13865	       3.80390
      18.33541	       1.45845	       1.63755	       2.10665	       9.33065	       1.98724	       2.52456	       3.06189	       4.30711
      18.45220	       1.37316	       1.76549	       2.25164	       9.25389	       1.79960	       2.10665	       2.67808	       4.11094
      18.56898	       1.65461	       1.85931	       1.92754	       8.44364	       1.68873	       2.49045	       2.31987	       4.00860
      18.68577	       1.77402	       2.26017	       2.20046	       9.43300	       1.75696	       2.37957	       2.79749	       4.07683
      18.80255	       1.31346	       2.10665	       1.96165	       8.80186	       1.93607	       2.15782	       2.75484	       4.17918
      18.91934	       1.43286	       2.13223	       1.68020	       8.98949	       1.85931	       2.20046	       2.82308	       4.11094
      19.03613	       1.55227	       2.00430	       2.02136	       9.06625	       1.80813	       2.43927	       2.61838	       3.95742
      19.15291	       1.48403	       1.73990	       2.12370	       9.23683	       1.73990	       2.39663	       2.85719	       4.00860
      19.26970	       1.65461	       1.67167	       2.06400	       8.25600	       1.82519	       2.22605	       2.48192	       4.22182
      19.38648	       1.73137	       1.85931	       2.16635	       9.04920	       1.93607	       2.19194	       2.39663	       4.09389
      19.50327	       1.61197	       1.82519	       2.16635	       8.63128	       1.86784	       2.15782	       2.66956	       4.13653
      19.62006	       1.61197	       2.00430	       1.89342	       8.09396	       1.98724	       2.29428	       2.64397	       3.79537
      19.73684	       1.64608	       1.83372	       2.08106	       9.21124	       1.82519	       2.02989	       2.95101	       4.08536
      19.85363	       1.62903	       1.93607	       2.10665	       8.42658	       1.92754	       2.35398	       2.45633	       4.15359
      19.97042	       1.33904	       1.75696	       2.11517	       8.34129	       2.01283	       2.44780	       2.47339	       3.81243
      20.08720	       1.39022	       2.10665	       2.18341	       8.42658	       2.07253	       2.48192	       2.58427	       3.86361
      20.20399	       1.59491	       2.21752	       2.03841	       8.81038	       1.84225	       2.20899	       2.83160	       4.20476
      20.32077	       1.78255	       1.94460	       1.97871	       7.54810	       1.92754	       2.38810	       2.49045	       4.14506
      20.43756	       1.60344	       1.91901	       2.22605	       8.23895	       1.80813	       2.25164	       2.94248	       4.22182
      20.55434	       1.37316	       1.77402	       1.94460	       7.40311	       1.78255	       2.31134	       2.55868	       3.73567
      20.67113	       1.39022	       1.99577	       2.21752	       8.11101	       1.70579	       2.21752	       2.70367	       3.84655
      20.78792	       1.44139	       1.94460	       2.15782	       8.34129	       1.85078	       2.05547	       2.50751	       3.96595
      20.90470	       1.46698	       2.07253	       2.02989	       8.17924	       2.03841	       2.26017	       3.02777	       4.05977
      21.02149	       1.50962	       2.21752	       1.80813	       8.81891	       2.00430	       2.06400	       2.89131	       3.80390
      21.13828	       1.50962	       2.19194	       2.13223	       8.16219	       1.67167	       2.45633	       2.76337	       3.82096
      21.25506	       1.57785	       1.88489	       2.05547	       6.90843	       2.10665	       2.20046	       2.84866	       4.32417
      21.37185	       1.47550	       1.94460	       2.14076	       7.58222	       1.79108	       2.19194	       2.70367	       4.23888
      21.48863	       1.27081	       2.07253	       1.99577	       7.39458	       1.79960	       2.32840	       2.89984	       4.17065
      21.60542	       1.22817	       1.97018	       1.97871	       7.01931	       1.72284	       2.33693	       2.59279	       3.94037
      21.72220	       1.34757	       1.95313	       1.92754	       6.91696	       1.97871	       2.28575	       2.73779	       3.86361
      21.83899	       1.63755	       1.87636	       2.23458	       6.05554	       1.95313	       2.37957	       2.78043	       4.26446
      21.95578	       1.48403	       2.18341	       1.94460	       6.61845	       1.73990	       2.22605	       2.73779	       4.17918
      22.07256	       1.37316	       1.84225	       1.92754	       6.57581	       1.90195	       2.21752	       2.67808	       4.42651
      22.18935	       1.42433	       1.97871	       2.09812	       6.65257	       1.79960	       2.20899	       2.38810	       3.66744
      22.30614	       1.58638	       2.22605	       2.08106	       6.90843	       1.94460	       2.28575	       2.54162	       3.97448
      22.42292	       1.50109	       1.86784	       1.92754	       6.03848	       1.79108	       2.33693	       2.59279	       3.60774
      22.53971	       1.59491	       1.99577	       2.06400	       6.01290	       1.97871	       2.20046	       2.64397	       4.24741
      22.65649	       1.57785	       1.68020	       1.87636	       6.15789	       1.72284	       2.31134	       3.06189	       4.23035
      22.77328	       1.39022	       1.73990	       2.02136	       6.61845	       1.93607	       2.26870	       2.66956	       3.96595
      22.89007	       1.25375	       2.20899	       2.28575	       6.01290	       1.63755	       2.39663	       2.82308	       4.07683
      23.00685	       1.39022	       2.18341	       1.93607	       5.45852	       1.84225	       2.26017	       2.60985	       4.10242
      23.12364	       1.34757	       1.98724	       1.91901	       5.38175	       1.86784	       2.42222	       2.41369	       4.06830
      23.24042	       1.46698	       1.91048	       2.15782	       5.21971	       1.81666	       1.90195	       2.88278	       4.10242
      23.35721	       1.67167	       1.95313	       2.31987	       5.22823	       2.13223	       2.14929	       2.66103	       3.74420
      23.47400	       1.62903	       2.06400	       2.16635	       5.49263	       2.07253	       2.18341	       2.67808	       4.03418
      23.59078	       1.33904	       1.89342	       2.14929	       4.98942	       1.97018	       2.25164	       2.49898	       4.09389
      23.70757	       1.55227	       2.01283	       2.21752	       4.77620	       1.73137	       2.40516	       2.42222	       4.04271
      23.82435	       1.39022	       2.01283	       2.14076	       4.81032	       1.86784	       2.20046	       2.66103	       3.95742
      23.94114	       1.43286	       2.02136	       1.91901	       5.15147	       1.91901	       2.25164	       2.82308	       4.37534
      24.05793	       1.44139	       1.79108	       2.02989	       5.11736	       1.77402	       2.21752	       2.66956	       4.02565
      24.17471	       1.63755	       1.94460	       2.31134	       5.28794	       1.80813	       2.38810	       2.84013	       4.00007
      24.29150	       1.61197	       2.15782	       2.03841	       5.46704	       1.96165	       2.08959	       2.95101	       4.07683
      24.40828	       1.49256	       1.94460	       2.01283	       4.84443	       1.97871	       2.13223	       2.83160	       4.01713
      24.52507	       1.42433	       2.09812	       1.83372	       5.35617	       1.94460	       2.04694	       2.55015	       3.72714
      24.64186	       1.43286	       1.91048	       2.24311	       4.75914	       1.92754	       2.22605	       2.60132	       4.12800
      24.75864	       1.63755	       2.21752	       2.10665	       5.77409	       2.13223	       2.31987	       2.79749	       4.15359
      24.87543	       1.54374	       1.79960	       2.25164	       5.09177	       1.78255	       2.45633	       2.53309	       4.35828
      24.99221	       1.57785	       1.85931	       1.99577	       5.18559	       1.87636	       2.09812	       2.71220	       4.16212
      25.10900	       1.38169	       1.73137	       1.89342	       5.09177	       1.90195	       2.08959	       2.76337	       4.17065
      25.22579	       1.35610	       1.77402	       2.15782	       4.70797	       1.84225	       2.27722	       2.84013	       4.12800
      25.34257	       1.45845	       1.85931	       1.94460	       5.36470	       1.83372	       2.25164	       2.49898	       4.03418
      25.45936	       1.28787	       1.95313	       2.03841	       5.02354	       1.85931	       2.16635	       2.78896	       4.03418
      25.57615	       1.32198	       1.86784	       2.06400	       5.26235	       2.02989	       2.13223	       2.79749	       3.73567
      25.69293	       1.31346	       2.00430	       2.14929	       4.97237	       2.06400	       2.19194	       2.78043	       4.25594
      25.80972	       1.51815	       1.98724	       1.97871	       5.40734	       2.01283	       2.14929	       2.77190	       4.07683
      25.92650	       1.47550	       2.21752	       2.16635	       4.40093	       2.08959	       2.26870	       2.38810	       4.17065
      26.04329	       1.31346	       1.86784	       2.04694	       4.81885	       1.92754	       2.07253	       2.49045	       4.11094
      26.16007	       1.49256	       1.92754	       2.02989	       4.81885	       1.90195	       2.28575	       2.68661	       3.66744
      26.27686	       1.50109	       1.97018	       2.08959	       4.90413	       1.73137	       2.09812	       2.59279	       4.05124
      26.39365	       1.39022	       1.90195	       1.97871	       4.72503	       1.89342	       2.21752	       2.87425	       3.67597
      26.51043	       1.56079	       2.09812	       1.84225	       4.92119	       1.81666	       2.31134	       2.70367	       3.70156
      26.62722	       1.54374	       2.10665	       2.03841	       4.59709	       1.76549	       2.26017	       2.66103	       4.03418
      26.74401	       1.44139	       2.02136	       2.12370	       4.27299	       1.94460	       2.41369	       2.61838	       4.07683
      26.86079	       1.49256	       2.06400	       2.26870	       4.59709	       1.88489	       2.28575	       2.58427	       4.23035
      26.97758	       1.34757	       1.79960	       1.91901	       4.46063	       1.71431	       2.24311	       2.49045	       4.26446
      27.09436	       1.60344	       1.91048	       2.05547	       4.38387	       2.08959	       2.25164	       2.81455	       3.90625
      27.21115	       1.42433	       1.98724	       2.00430	       4.24741	       2.05547	       2.35398	       2.70367	       3.85508
      27.32793	       1.38169	       1.79108	       2.06400	       4.40093	       1.96165	       2.36251	       2.67808	       4.19623
      27.44472	       1.56932	       1.95313	       2.21752	       4.46916	       1.95313	       2.16635	       2.65250	       3.99154
      27.56151	       1.36463	       1.74843	       2.00430	       4.29858	       1.84225	       2.20046	       2.48192	       4.38387
      27.67829	       1.30493	       1.91048	       1.91048	       4.26446	       2.15782	       2.44780	       2.78896	       4.10242
      27.79508	       1.44992	       1.96165	       1.96165	       3.95742	       2.01283	       2.37104	       3.03630	       4.10242
      27.91187	       1.53521	       2.15782	       2.20046	       3.97448	       1.98724	       2.43075	       2.62691	       3.90625
      28.02865	       1.42433	       1.91901	       2.18341	       3.97448	       1.86784	       2.31987	       2.64397	       3.94889
      28.14544	       1.38169	       1.89342	       1.86784	       4.01713	       1.84225	       1.93607	       2.88278	       3.85508
      28.26222	       1.65461	       1.64608	       2.08959	       4.50327	       1.85931	       2.03841	       2.61838	       3.84655
      28.37901	       1.44992	       1.72284	       2.31134	       3.94889	       1.98724	       2.32840	       2.53309	       4.12800
      28.49580	       1.51815	       1.72284	       1.92754	       3.59921	       1.78255	       2.50751	       2.79749	       4.10242
      28.61258	       1.48403	       1.83372	       2.08106	       3.85508	       2.13223	       1.96165	       2.68661	       4.01713
      28.72937	       1.43286	       1.76549	       2.21752	       3.58215	       1.86784	       1.89342	       2.89984	       4.11094
      28.84615	       1.47550	       1.87636	       2.01283	       3.54803	       2.08106	       2.19194	       2.79749	       3.98301
      28.96294	       1.21964	       1.68020	       1.92754	       3.53098	       1.92754	       2.42222	       2.65250	       4.07683
      29.07973	       1.28787	       2.00430	       1.97871	       3.64185	       1.88489	       2.13223	       2.60985	       4.34975
      29.19651	       1.47550	       1.84225	       2.36251	       3.02777	       2.10665	       2.10665	       2.66956	       4.34123
      29.31330	       1.38169	       1.69726	       2.23458	       3.38599	       1.85931	       2.13223	       2.87425	       4.28152
      29.43008	       1.42433	       2.04694	       1.89342	       3.60774	       1.78255	       2.20899	       2.92542	       3.96595
      29.54687	       1.43286	       1.85931	       2.10665	       4.11947	       1.58638	       2.24311	       2.77190	       4.16212
      29.66366	       1.41580	       1.81666	       2.24311	       4.00860	       1.85931	       2.37957	       2.66956	       4.00860

Monitor Diode	1563837.00
