ALV-7004 CGS-8F Data, Single Run Data
Date :	"11.05.2021"
Time :	"09:38:16"
Samplename : 	"093 2021 Wasser"
SampMemo(0) : 	"Wasser-Messung "
SampMemo(1) : 	""
SampMemo(2) : 	""
SampMemo(3) : 	""
SampMemo(4) : 	""
SampMemo(5) : 	""
SampMemo(6) : 	""
SampMemo(7) : 	""
SampMemo(8) : 	""
SampMemo(9) : 	""
Temperature [K] :	     292.96626
Viscosity [cp]  :	       1.00682
Refractive Index:	       1.33200
Wavelength [nm] :	     632.80000
Angle(1)[°]     :	      34.00000
Angle(2)[°]     :	      50.00000
Angle(3)[°]     :	      66.00000
Angle(4)[°]     :	      82.00000
Angle(5)[°]     :	      98.00000
Angle(6)[°]     :	     114.00000
Angle(7)[°]     :	     130.00000
Angle(8)[°]     :	     146.00000
Duration [s]    :	          30.0
Runs            :	         1
Mode            :	"8 x AUTO, 100 ns STC"
MeanCR1 [kHz]   :	       4.04578
MeanCR2 [kHz]   :	       2.72164
MeanCR3 [kHz]   :	       2.24754
MeanCR4 [kHz]   :	       1.81942
MeanCR5 [kHz]   :	       2.02082
MeanCR6 [kHz]   :	       2.04777
MeanCR7 [kHz]   :	       1.86457
MeanCR8 [kHz]   :	       1.47666
Atten[1]        :	       1.00000
Atten[2]        :	       1.00000
Atten[3]        :	       1.00000
RelSens[1]      :	       1.00000
RelSens[2]      :	       1.00000
RelSens[3]      :	       1.00000
RelSens[4]      :	       1.00000
RelSens[5]      :	       1.00000
RelSens[6]      :	       1.00000
RelSens[7]      :	       1.00000
RelSens[8]      :	       1.00000
DC[1][kHz]      :	       0.00000
DC[2][kHz]      :	       0.00000
DC[3][kHz]      :	       0.00000
DC[4][kHz]      :	       0.00000
DC[5][kHz]      :	       0.00000
DC[6][kHz]      :	       0.00000
DC[7][kHz]      :	       0.00000
DC[8][kHz]      :	       0.00000

"Correlation"
  1.00000E-004	  2.36430E+000	  4.05942E+000	  1.14703E+000	  1.34755E+000	  1.69459E+000	  4.36344E+000	  3.33285E+000	  7.62161E-001
  2.00000E-004	  4.52767E-001	  1.61363E+000	  2.52432E-001	  8.16802E-001	  6.11719E-001	  8.64828E-001	  1.79103E+000	  2.12122E-001
  3.00000E-004	 -3.50078E-001	  1.11009E+000	  2.52432E-001	  4.49359E-001	  4.85804E-001	  1.88209E-001	  4.40531E-001	  1.66286E-001
  4.00000E-004	 -3.88309E-001	  1.98915E-001	  2.72312E-001	  5.92254E-001	  2.59156E-001	  8.91917E-002	  5.53073E-001	 -5.78040E-002
  5.00000E-004	  1.46921E-001	  3.90741E-001	  1.53033E-001	  4.28946E-001	  3.09522E-001	  3.20232E-001	  1.47923E-001	  1.20449E-001
  6.00000E-004	  2.23382E-001	  1.98915E-001	 -4.57661E-002	  1.83984E-001	  4.10254E-001	  2.31801E-002	  8.03986E-002	  4.91480E-002
  7.00000E-004	  7.04596E-002	 -1.84738E-001	 -3.24084E-001	  3.47292E-001	  2.08790E-001	 -1.74855E-001	  2.82973E-001	 -3.23392E-002
  8.00000E-004	  2.23382E-001	  2.46871E-001	 -1.25286E-001	  2.24811E-001	  3.09522E-001	  5.61858E-002	  2.60465E-001	 -1.44384E-001
  9.00000E-004	  9.87996E-001	  2.46871E-001	 -4.57661E-002	 -2.65114E-001	  7.32460E-003	 -5.37919E-001	 -1.44684E-001	  5.93339E-002
  1.00000E-003	 -8.24632E-002	  3.42784E-001	 -4.57661E-002	 -1.83460E-001	 -9.34079E-002	  7.82314E-001	 -9.63468E-003	  2.22308E-001
  1.10000E-003	  2.23382E-001	 -4.08684E-002	  1.92792E-001	 -1.83460E-001	  2.08790E-001	 -2.73872E-001	  2.15448E-001	  5.93339E-002
  1.20000E-003	  8.35074E-001	  4.38697E-001	 -6.81922E-001	  2.24811E-001	 -2.94873E-001	 -7.58374E-002	  3.53819E-002	 -1.03641E-001
  1.30000E-003	  5.29228E-001	  2.46871E-001	 -4.57661E-002	  5.51427E-001	 -9.34079E-002	  9.14337E-001	 -1.44684E-001	 -1.78151E-003
  1.40000E-003	  2.23382E-001	 -4.08684E-002	  1.92792E-001	  3.06465E-001	  7.32460E-003	 -7.58374E-002	  3.53819E-002	 -8.32687E-002
  1.50000E-003	  5.29228E-001	 -4.24521E-001	  1.13273E-001	  3.06465E-001	  4.10254E-001	  5.61858E-002	 -1.44684E-001	 -1.03641E-001
  1.60000E-003	 -8.24633E-002	 -5.68391E-001	  1.92792E-001	  3.88119E-001	 -4.30417E-002	  8.91916E-002	  8.03985E-002	 -4.25252E-002
  1.80000E-003	 -2.35386E-001	  3.42784E-001	  1.92792E-001	  6.15025E-002	 -3.95605E-001	  1.22197E-001	  3.53819E-002	 -4.25252E-002
  2.00000E-003	  2.23382E-001	 -4.08685E-002	  7.35131E-002	 -6.09786E-002	  3.09522E-001	 -7.58374E-002	 -9.63474E-003	  1.61193E-001
  2.20000E-003	  1.46921E-001	  5.50447E-002	 -2.04805E-001	  2.24811E-001	  1.58423E-001	  8.91916E-002	 -3.21430E-002	 -1.13826E-001
  2.40000E-003	 -6.00186E-003	  2.46871E-001	 -1.65045E-001	  1.02329E-001	  5.76908E-002	 -1.41849E-001	  3.05481E-001	  1.85902E-002
  2.60000E-003	 -1.58925E-001	 -8.88250E-002	  3.37533E-002	 -1.83460E-001	 -9.34079E-002	 -1.41849E-001	 -1.44685E-001	  2.87761E-002
  2.80000E-003	  2.23382E-001	  2.46871E-001	 -4.57662E-002	  1.02329E-001	 -9.34079E-002	 -9.82583E-003	 -5.46513E-002	  1.85902E-002
  3.00000E-003	 -8.24633E-002	  1.98914E-001	  3.51831E-001	 -2.01516E-002	 -4.30417E-002	 -1.41849E-001	  5.78902E-002	  8.98916E-002
  3.20000E-003	 -8.24634E-002	  7.90229E-002	  7.35129E-002	 -2.03873E-001	 -6.82249E-002	 -1.74855E-001	 -9.63484E-003	  3.31128E-003
  3.60000E-003	  1.46921E-001	  1.98914E-001	  3.37532E-002	 -2.01517E-002	  2.08789E-001	 -1.41849E-001	 -8.84139E-002	  5.42408E-002
  4.00000E-003	 -4.42327E-002	 -1.68903E-002	 -2.58864E-002	  2.04397E-001	  3.25076E-002	  2.21215E-001	  4.66359E-002	 -1.78167E-003
  4.40000E-003	 -8.24634E-002	  2.94827E-001	 -1.05406E-001	 -8.13922E-002	  1.08057E-001	  1.38700E-001	  3.53818E-002	  8.47985E-002
  4.80000E-003	 -1.58925E-001	 -3.28608E-001	  1.53032E-001	 -4.05652E-002	 -1.18591E-001	  2.31799E-002	 -1.10922E-001	 -2.21535E-002
  5.20000E-003	  1.85152E-001	  1.98914E-001	 -1.25286E-001	 -1.01806E-001	  1.33240E-001	  1.38700E-001	 -8.84139E-002	  4.40549E-002
  5.60000E-003	 -4.26540E-001	 -2.08717E-001	  2.12672E-001	  1.22743E-001	 -9.34080E-002	  5.61857E-002	  2.15448E-001	  6.95196E-002
  6.00000E-003	  3.22287E-002	 -2.08717E-001	  1.72912E-001	  1.22743E-001	  7.32444E-003	  8.91915E-002	  3.53818E-002	  9.49844E-002
  6.40000E-003	  1.66036E-001	 -5.28579E-002	 -5.57064E-002	  1.22743E-001	 -1.31183E-001	  1.05694E-001	 -6.59058E-002	 -6.28973E-002
  7.20000E-003	  1.31132E-002	 -1.36782E-001	  7.35127E-002	  8.19156E-002	  7.32423E-003	  3.14311E-002	  1.61910E-003	  3.31106E-003
  8.00000E-003	  5.13439E-002	  6.70335E-002	 -8.55262E-002	  7.17089E-002	 -3.04504E-002	  8.09398E-002	 -3.21433E-002	  2.36829E-002
  8.80000E-003	  1.46921E-001	  1.26979E-001	 -1.05406E-001	  1.22743E-001	  1.20648E-001	 -9.82615E-003	  1.31042E-001	 -3.48861E-002
  9.60000E-003	 -6.00218E-003	  5.50444E-002	  4.36929E-002	 -3.03586E-002	  1.58423E-001	  1.46951E-001	 -8.84141E-002	  2.11364E-002
  1.04000E-002	 -2.73617E-001	 -4.90134E-003	 -3.58265E-002	 -6.09789E-002	 -1.18591E-001	 -4.28319E-002	  9.16523E-002	 -1.11280E-001
  1.12000E-002	 -1.01579E-001	 -2.88796E-002	 -3.58265E-002	  4.10886E-002	  1.99158E-002	  1.22197E-001	  4.10086E-002	  3.64152E-002
  1.20000E-002	 -1.78040E-001	 -4.90134E-003	  1.38731E-002	 -5.07721E-002	  9.54651E-002	  1.49282E-002	  5.22628E-002	  2.62293E-002
  1.28000E-002	 -7.29063E-002	  3.70602E-002	 -1.03721E-003	  1.55713E-002	 -1.15635E-002	 -2.63295E-002	  9.72789E-002	  4.58387E-003
  1.44000E-002	  5.13434E-002	 -1.68909E-002	 -6.06768E-002	  5.12949E-002	 -1.78593E-002	  3.55564E-002	  4.66352E-002	 -4.50724E-002
  1.60000E-002	  1.08689E-001	 -1.12804E-001	  6.85423E-002	  1.07432E-001	 -8.71128E-002	 -9.82657E-003	  5.78894E-002	  4.58387E-003
  1.76000E-002	  6.09011E-002	 -3.48746E-002	 -1.03721E-003	  1.55713E-002	 -2.41551E-002	 -5.10838E-002	 -2.37032E-002	 -1.06950E-002
  1.92000E-002	  1.31127E-002	 -1.66755E-001	  5.36324E-002	  2.80947E-001	 -1.18592E-001	  2.73049E-002	 -6.82194E-003	 -1.96076E-002
  2.08000E-002	  1.31127E-002	 -4.08692E-002	 -1.59471E-002	  8.19152E-002	  8.28731E-002	  3.14307E-002	  1.02906E-001	 -8.58159E-002
  2.24000E-002	 -8.24639E-002	 -1.68909E-002	 -6.06768E-002	  5.63983E-002	 -3.67466E-002	 -9.82657E-003	 -4.00840E-003	 -2.97935E-002
  2.40000E-002	  3.22281E-002	 -7.68366E-002	 -6.00717E-003	  1.38052E-001	  7.02815E-002	 -5.93352E-002	  4.10082E-002	  1.34965E-002
  2.56000E-002	  1.08688E-001	 -2.88809E-002	 -5.32226E-002	  7.17075E-002	 -3.67474E-002	 -4.90217E-002	  3.39734E-002	 -9.42258E-003
  2.88000E-002	 -2.98976E-002	 -5.28591E-002	  3.37517E-002	  9.72243E-002	  7.65764E-002	  3.96812E-002	 -6.73138E-002	 -1.32423E-002
  3.20000E-002	  2.74484E-002	 -4.68646E-002	 -9.29823E-002	  4.10873E-002	  7.02806E-002	 -9.44047E-002	 -3.35514E-002	 -3.99802E-002
  3.52000E-002	 -5.85706E-002	 -1.08972E-002	  3.87216E-002	  3.85356E-002	  5.13933E-002	 -2.01417E-002	 -4.19802E-002	  2.24083E-002
  3.84000E-002	 -2.03399E-002	  5.20457E-002	 -2.58879E-002	 -5.58767E-002	 -2.41559E-002	  1.28640E-002	  3.11725E-002	  1.26688E-004
  4.16000E-002	 -1.22462E-003	  6.10376E-002	  3.87216E-002	  2.83289E-002	  1.36187E-002	  1.28640E-002	  4.24268E-002	 -2.47014E-002
  4.48000E-002	  1.37361E-001	  1.09195E-003	 -1.22802E-001	  7.68109E-002	  4.50975E-002	 -7.76456E-003	  1.14776E-002	  1.66788E-002
  4.80000E-002	  5.13425E-002	 -1.98890E-002	 -6.31626E-002	  9.21210E-002	 -2.73038E-002	 -5.70170E-003	  1.56979E-002	  1.39992E-003
  5.12000E-002	 -4.66251E-002	  1.15807E-002	 -3.21020E-002	  1.55911E-001	 -6.84424E-003	 -4.28348E-002	  3.73855E-003	  3.62637E-003
  5.76000E-002	 -3.61574E-003	  2.35698E-002	  2.75375E-002	  6.14990E-002	  7.32122E-003	 -2.60911E-003	 -2.65073E-002	  1.09475E-002
  6.40000E-002	  7.76242E-002	  1.75753E-002	 -2.21621E-002	  1.01050E-001	  7.97224E-002	  2.31766E-002	  2.69504E-002	 -1.06894E-002
  7.04000E-002	  4.89513E-002	  5.58615E-003	  2.25675E-002	  8.31882E-002	 -4.61927E-002	 -5.70339E-003	 -6.10892E-003	  1.44572E-002
  7.68000E-002	 -3.61574E-003	 -3.78744E-002	  2.68770E-003	  7.55332E-002	  2.59940E-003	 -2.01434E-002	 -6.10892E-003	 -1.38725E-002
  8.32000E-002	 -2.75098E-002	  5.50412E-002	  5.17267E-003	  9.59466E-002	 -2.41576E-002	 -3.76777E-002	 -1.18519E-003	 -2.78781E-002
  8.96000E-002	 -1.32644E-001	  1.75753E-002	  1.01426E-002	  6.91540E-002	 -3.51751E-002	  6.67374E-003	 -4.05751E-002	 -1.57742E-002
  9.60000E-002	  4.41725E-002	 -3.63757E-002	  4.61748E-002	  8.70158E-002	  5.45394E-002	 -1.80805E-002	  2.83572E-002	 -2.24588E-002
  1.02400E-001	 -4.78231E-002	  1.83613E-003	  4.86562E-002	  8.38225E-002	  3.01398E-002	 -1.80839E-002	  1.67478E-002	 -1.89607E-002
  1.15200E-001	  2.26643E-002	  3.55554E-002	 -1.34680E-002	  9.21154E-002	  1.44005E-002	  2.42045E-002	  2.06164E-002	 -2.56760E-003
  1.28000E-001	  7.76206E-002	  1.60731E-002	 -1.04318E-003	  9.59429E-002	  6.53081E-003	 -1.80839E-002	  3.73512E-003	  9.36912E-003
  1.40800E-001	 -1.67609E-002	 -2.81365E-002	  2.25640E-002	  1.65476E-001	 -2.49479E-002	 -2.83981E-002	  1.70995E-002	 -6.22820E-003
  1.53600E-001	  5.93847E-003	  7.83067E-003	  2.00790E-002	  8.70120E-002	  4.35183E-002	 -1.44739E-002	  3.64427E-002	 -1.06846E-002
  1.66400E-001	 -8.36641E-002	 -3.93763E-002	  8.27545E-003	  3.08753E-002	  1.12526E-002	  1.13117E-002	 -1.33516E-004	 -1.14722E-002
  1.79200E-001	 -4.30443E-002	 -1.53981E-002	  1.94578E-002	  9.27533E-002	 -2.80957E-002	 -7.25393E-003	 -2.08835E-002	 -1.33821E-002
  1.92000E-001	  4.41689E-002	  2.88115E-002	 -2.89991E-002	  2.83236E-002	  1.44005E-002	 -9.31678E-003	 -2.61589E-002	  6.99007E-003
  2.04800E-001	  4.73691E-003	  1.41929E-002	  3.60928E-003	  3.57038E-002	  5.34349E-003	 -3.09066E-003	 -8.21710E-003	 -1.21789E-002
  2.30400E-001	  6.52895E-003	 -2.02754E-002	  1.85190E-002	  7.07908E-002	 -4.42351E-002	  1.03184E-002	 -1.06790E-002	  3.73703E-003
  2.56000E-001	 -6.61267E-003	  1.38183E-002	  6.40485E-003	  8.09980E-002	 -5.67397E-003	 -8.24798E-003	  1.98208E-003	 -9.95065E-003
  2.81600E-001	  5.84981E-002	 -5.28916E-003	 -1.09898E-002	  8.80153E-002	 -1.07892E-002	 -1.31474E-002	  5.85074E-003	 -1.79086E-002
  3.07200E-001	  1.48918E-002	  2.65566E-002	  1.94508E-002	  6.63252E-002	  1.24262E-002	 -1.10845E-002	 -5.39135E-003	 -3.74345E-003
  3.32800E-001	  5.55484E-004	 -7.16244E-003	  8.57918E-003	  1.02050E-001	 -2.49545E-002	  5.41891E-003	  6.39061E-003	 -6.21041E-003
  3.58400E-001	  4.89406E-002	 -6.41313E-003	 -1.19217E-002	  9.21620E-002	 -2.18067E-002	  2.24381E-002	  1.20178E-002	  9.94424E-003
  3.84000E-001	 -3.28959E-002	  2.99285E-002	 -1.65809E-002	  8.70584E-002	  3.01328E-002	  1.39285E-002	 -7.32570E-003	 -1.74230E-002
  4.09600E-001	 -2.06637E-002	  1.15746E-002	 -1.17638E-002	  8.97032E-002	  2.34296E-002	 -1.36891E-003	 -8.28212E-003	 -7.98180E-003
  4.60800E-001	  4.74588E-003	  8.76469E-003	  2.06960E-002	  7.78824E-002	 -2.14627E-003	  7.12611E-003	  8.43618E-003	 -3.93958E-003
  5.12000E-001	  1.63942E-002	  4.26880E-003	 -1.78208E-002	  7.78824E-002	 -9.03209E-003	  1.96179E-002	 -1.52162E-002	  3.54092E-003
  5.63200E-001	 -1.37720E-002	  1.94424E-002	 -4.77481E-003	  7.43558E-002	  4.34608E-003	  1.30909E-003	  5.79837E-003	 -9.15206E-003
  6.14400E-001	 -1.82522E-002	 -6.78359E-003	 -1.68890E-002	  5.88673E-002	 -8.44188E-003	 -9.77932E-003	 -1.12716E-002	 -1.17384E-002
  6.65600E-001	 -5.70778E-003	  2.58284E-003	 -1.65784E-002	  6.39711E-002	 -4.11365E-003	  5.30607E-003	 -9.23717E-003	 -1.71135E-003
  7.16800E-001	  1.37062E-002	 -8.46955E-003	  8.44294E-003	  7.17862E-002	  1.00515E-002	 -1.77054E-003	 -7.83033E-003	 -1.07471E-003
  7.68000E-001	  1.16176E-003	 -1.89600E-002	  6.88982E-003	  7.13077E-002	 -7.85166E-003	  8.04362E-003	 -1.12595E-002	 -4.09874E-003
  8.19200E-001	  1.06109E-002	 -7.05619E-003	  5.39109E-003	  7.75965E-002	  2.20245E-002	  6.22117E-003	  6.08398E-003	 -1.69956E-003
  9.21600E-001	  1.59873E-002	 -8.83583E-003	 -1.12282E-002	  8.42603E-002	  1.53357E-002	 -2.33886E-003	  5.68829E-003	  1.30902E-004
  1.02400E+000	 -4.15165E-003	  3.17124E-003	  7.39385E-003	  7.41315E-002	  1.54340E-002	 -5.87015E-003	  1.81942E-003	  3.11536E-003
  1.12640E+000	  1.03350E-002	 -9.54972E-003	  5.37472E-003	  9.19965E-002	 -2.66536E-003	  2.64047E-003	  1.20947E-002	 -6.76612E-004
  1.22880E+000	  1.03350E-002	  1.60036E-002	 -5.49756E-003	  7.10211E-002	 -9.64936E-003	 -1.42142E-003	 -1.04148E-002	  4.91098E-003
  1.33120E+000	  1.25753E-002	 -1.06737E-002	 -8.21741E-004	  8.02548E-002	  7.76146E-003	 -5.39863E-003	 -7.55718E-003	  1.07428E-003
  1.43360E+000	 -8.01229E-003	  6.84226E-003	  2.59532E-003	  8.65194E-002	  1.97621E-002	 -7.20383E-003	  1.48712E-003	  1.67118E-003
  1.53600E+000	 -1.80188E-002	  1.36801E-002	 -1.72857E-002	  1.02071E-001	 -4.43595E-003	  3.70674E-003	 -4.09623E-003	 -1.12417E-002
  1.63840E+000	 -1.00315E-003	  5.65856E-003	  3.11904E-003	  9.36886E-002	  4.33866E-004	  8.50329E-003	  6.07369E-003	 -4.36333E-003
  1.84320E+000	 -1.32739E-002	  6.86547E-003	 -1.32923E-002	  7.83168E-002	 -1.82856E-003	 -2.76704E-003	  2.75404E-003	 -1.28525E-003
  2.04800E+000	  3.80608E-003	  3.88583E-003	  2.00913E-003	  8.50785E-002	 -1.46654E-002	 -8.53866E-003	  6.55466E-003	  2.36813E-003
  2.25280E+000	 -1.49916E-002	  1.76019E-003	 -3.42155E-003	  8.26060E-002	  4.07342E-003	 -6.65102E-003	  4.18303E-003	 -2.81065E-003
  2.45760E+000	  9.65411E-003	 -1.00323E-003	 -1.26306E-003	  7.53080E-002	  5.00790E-003	  2.44156E-003	 -6.53320E-003	  1.27046E-003
  2.66240E+000	  1.12225E-002	  1.24860E-002	  3.39704E-003	  7.77628E-002	 -5.49797E-004	  5.26405E-003	  5.51441E-003	 -3.70266E-003
  2.86720E+000	  9.20601E-003	  2.63216E-003	 -5.06881E-003	  7.53922E-002	  7.78062E-003	  1.45940E-003	 -5.67580E-003	  3.35823E-003
  3.07200E+000	 -2.64624E-003	 -3.64395E-003	 -4.44747E-003	  7.48604E-002	  2.41956E-003	  1.03457E-002	  2.17274E-003	 -3.76236E-003
  3.27680E+000	  5.23682E-003	  2.96554E-003	 -9.54924E-003	  8.07296E-002	  2.41437E-003	  6.26950E-003	 -5.59893E-004	  1.41788E-003
  3.68640E+000	 -4.13767E-003	  4.35990E-003	 -5.45157E-003	  7.79995E-002	  1.56610E-003	  3.09568E-003	 -5.25453E-003	 -2.18484E-003
  4.09600E+000	  4.53651E-005	 -2.07558E-003	  1.57855E-003	  8.28058E-002	  6.04792E-003	 -3.25670E-003	  3.60439E-003	 -4.35437E-005
  4.50560E+000	 -4.94447E-003	 -4.58731E-003	  6.72189E-003	  8.03329E-002	  2.13793E-003	 -3.30640E-003	  4.50460E-003	  2.15444E-003
  4.91520E+000	  1.25114E-002	  1.47899E-003	  4.85446E-003	  7.69824E-002	 -5.23941E-003	 -1.93332E-003	  3.34053E-003	  4.98415E-003
  5.32480E+000	  5.78086E-003	  2.84469E-004	  2.24898E-003	  7.36365E-002	  8.94358E-003	 -1.67536E-003	 -5.41669E-004	  1.27222E-003
  5.73440E+000	 -1.15323E-002	  1.43766E-003	  3.90591E-003	  7.41572E-002	 -3.78293E-003	 -1.53156E-003	 -7.30184E-003	 -2.07956E-003
  6.14400E+000	  4.89922E-003	  4.32397E-003	 -3.80404E-003	  7.86505E-002	  3.51484E-003	  1.06895E-002	 -5.61148E-004	 -1.11754E-003
  6.55360E+000	  9.26042E-003	  5.68952E-003	  3.50810E-003	  8.24768E-002	  2.91984E-003	  4.98674E-003	 -4.04416E-003	 -2.47955E-003
  7.37280E+000	 -4.32715E-003	  5.46374E-004	 -3.06082E-003	  7.57448E-002	  3.63938E-003	 -1.59542E-003	 -1.21485E-003	 -1.52589E-004
  8.19200E+000	 -3.77054E-003	  2.39091E-003	 -1.87586E-003	  7.45876E-002	 -1.13882E-003	  2.12614E-003	  3.32563E-003	  5.76608E-004
  9.01120E+000	  3.09723E-004	  3.91991E-003	 -3.71157E-003	  7.61283E-002	  5.24431E-003	 -2.35732E-003	  6.19166E-003	 -2.28772E-003
  9.83040E+000	 -4.40187E-003	  1.71153E-003	 -1.63959E-003	  7.30679E-002	 -1.36048E-003	  1.00907E-003	 -3.02555E-004	 -2.09954E-003
  1.06496E+001	  3.57502E-003	 -3.77037E-003	 -2.72741E-003	  7.59310E-002	 -2.65832E-004	 -8.73898E-004	  4.54056E-003	  8.45391E-004
  1.14688E+001	  2.15921E-003	  3.75592E-003	 -2.95398E-003	  7.25791E-002	  1.95507E-004	  1.34596E-003	  6.30969E-004	 -9.52852E-004
  1.22880E+001	  8.01706E-003	 -3.22543E-003	  3.42020E-003	  7.94809E-002	  4.82613E-003	 -2.98510E-003	 -5.20779E-004	  7.06529E-004
  1.31072E+001	  1.24831E-003	  1.43390E-003	 -1.53992E-003	  7.61547E-002	 -1.28948E-003	 -2.78930E-003	 -1.59956E-003	  1.33502E-003
  1.47456E+001	  2.29905E-003	 -2.95180E-004	 -6.16847E-004	  7.63482E-002	 -2.14724E-005	  2.31692E-003	 -5.47273E-004	  2.10711E-003
  1.63840E+001	 -4.10915E-003	  2.91717E-003	 -2.35170E-003	  7.43744E-002	 -1.30709E-003	  9.19755E-004	  8.24934E-004	 -1.17284E-003
  1.80224E+001	  4.06201E-004	  3.94721E-003	 -4.59626E-004	  7.69863E-002	 -1.18357E-003	 -3.55849E-003	  3.83818E-003	  2.08843E-003
  1.96608E+001	 -1.83203E-003	  2.44753E-003	 -1.43325E-003	  7.23601E-002	 -2.06381E-003	 -1.69718E-003	  3.05124E-003	  2.49528E-004
  2.12992E+001	  1.54199E-003	 -1.84768E-004	 -1.60164E-003	  7.40422E-002	  3.77059E-003	 -1.69565E-003	 -2.04573E-003	  5.00250E-004
  2.29376E+001	 -4.25994E-003	  1.44458E-003	 -1.87487E-004	  8.01817E-002	  6.07130E-004	 -2.84704E-003	  1.77198E-003	  1.10253E-003
  2.45760E+001	 -5.95936E-004	  4.72834E-003	  1.05694E-003	  7.47915E-002	 -1.18973E-003	 -1.55064E-003	 -3.51874E-004	 -1.09762E-003
  2.62144E+001	  2.67330E-003	  2.78186E-003	  1.48768E-003	  7.51963E-002	 -2.06097E-003	 -1.02836E-004	  1.16436E-003	  3.48177E-004
  2.94912E+001	  1.06054E-004	 -3.09781E-004	  2.70472E-003	  7.57964E-002	  2.17505E-003	 -4.15540E-004	  1.18640E-003	  6.47997E-004
  3.27680E+001	 -1.73228E-003	  1.39338E-003	 -9.31909E-004	  7.52423E-002	  9.48505E-004	 -9.91627E-004	  1.65056E-003	 -2.32896E-004
  3.60448E+001	 -6.84050E-004	  2.56320E-003	  1.24361E-003	  7.24896E-002	  3.43000E-003	 -1.19058E-003	 -6.79540E-004	  9.99395E-004
  3.93216E+001	 -1.21743E-004	  1.78908E-003	 -1.26818E-003	  7.50637E-002	 -1.11165E-003	 -1.82884E-003	  6.72446E-004	 -6.62559E-004
  4.25984E+001	 -4.92949E-004	  3.15643E-003	  7.37211E-004	  7.27442E-002	  2.18266E-003	  5.85563E-004	 -4.66876E-004	  7.19192E-005
  4.58752E+001	  6.80923E-004	  1.58259E-003	 -1.51790E-004	  7.58746E-002	  2.09305E-003	 -2.53592E-004	  1.54221E-003	 -7.50274E-004
  4.91520E+001	  3.37312E-003	  2.29061E-003	 -5.58778E-004	  7.62761E-002	  1.51337E-003	  2.14121E-003	  9.59229E-004	  4.89081E-004
  5.24288E+001	  1.52949E-003	  4.87178E-004	  6.47622E-004	  7.46696E-002	 -4.40784E-004	  8.59878E-004	  3.29767E-004	 -5.94741E-004
  5.89824E+001	 -5.67026E-004	  1.84701E-004	 -2.37362E-003	  7.37445E-002	 -3.77148E-004	 -4.22508E-004	  1.33446E-003	 -3.53523E-004
  6.55360E+001	 -5.31184E-005	 -2.46267E-003	  5.77122E-004	  7.40259E-002	  1.05141E-003	 -4.02648E-004	 -1.60018E-003	 -3.82105E-004
  7.20896E+001	  7.46944E-004	  7.58601E-004	  7.58015E-004	  7.37674E-002	 -5.74068E-004	 -2.25227E-003	  4.08108E-004	 -1.19752E-003
  7.86432E+001	  3.23962E-003	  7.16055E-004	  3.62213E-004	  7.53172E-002	  1.00844E-003	  3.58992E-004	  1.44152E-003	  1.02088E-004
  8.51968E+001	  1.79265E-003	 -4.50489E-004	 -4.18231E-004	  7.39692E-002	  4.36931E-004	  2.54720E-004	  1.03201E-003	  4.67893E-004
  9.17504E+001	 -1.59928E-003	  5.88129E-004	  5.12630E-004	  7.48445E-002	  5.80792E-004	  9.53035E-004	 -1.78678E-003	 -1.06717E-003
  9.83040E+001	  6.77424E-004	  1.86680E-003	 -2.07908E-003	  7.50539E-002	  1.31248E-003	 -4.05790E-004	  2.81946E-004	  7.28640E-004
  1.04858E+002	  2.75023E-005	  1.18582E-003	  7.38079E-005	  7.38013E-002	 -1.22978E-003	 -6.66666E-004	  2.03567E-004	  8.71246E-005
  1.17965E+002	  1.04079E-003	  1.18769E-003	  1.68228E-003	  7.26029E-002	 -4.46149E-005	  1.14732E-003	  6.92667E-005	  3.81486E-004
  1.31072E+002	 -2.98984E-004	 -3.76138E-004	 -1.52142E-003	  7.38344E-002	 -1.63902E-003	 -1.07738E-003	 -6.56724E-004	 -6.68445E-004
  1.44179E+002	  2.63426E-003	  3.16023E-004	  5.83562E-004	  7.40528E-002	 -6.28747E-004	 -1.81184E-003	  7.79644E-004	  2.79310E-004
  1.57286E+002	 -1.45218E-003	  3.20015E-003	 -7.21351E-004	  7.34391E-002	  8.11226E-004	 -7.02093E-004	  3.20334E-004	  6.33598E-004
  1.70394E+002	  2.28082E-003	  1.03396E-003	 -1.46272E-003	  7.37116E-002	 -1.16897E-003	  3.31017E-004	  1.59347E-003	  2.34318E-004
  1.83501E+002	 -1.38267E-003	  1.21052E-003	  5.71292E-004	  7.29122E-002	  6.41079E-004	  2.47345E-004	  3.24815E-004	 -1.46256E-004
  1.96608E+002	  1.16546E-003	  1.13429E-003	 -1.77311E-003	  7.34013E-002	 -5.21892E-004	 -4.71607E-004	  1.16099E-004	 -4.08638E-004
  2.09715E+002	  2.47717E-003	  1.95318E-003	 -4.45581E-005	  6.98832E-002	  2.29570E-004	 -2.86974E-004	  6.99191E-004	 -3.27920E-004
  2.35930E+002	  1.13833E-003	  4.28309E-005	 -7.53161E-004	  7.00668E-002	  1.90415E-003	  8.72362E-005	  8.63624E-004	 -3.33587E-004
  2.62144E+002	 -1.44869E-003	  1.37563E-003	  2.05947E-004	  6.92309E-002	  1.38458E-003	 -4.42668E-004	 -5.66068E-004	  9.85310E-005
  2.88358E+002	  5.59809E-004	  4.36332E-004	 -2.80363E-004	  7.13939E-002	  1.05747E-003	  3.50404E-004	 -5.81598E-004	  6.11412E-004
  3.14573E+002	 -2.64945E-004	  7.81943E-004	 -7.25593E-005	  6.88726E-002	  2.64969E-004	 -3.44028E-004	  1.29041E-004	 -1.78379E-005
  3.40787E+002	  5.89080E-004	  6.59819E-004	 -2.45036E-004	  7.12196E-002	 -5.83074E-005	 -1.21951E-004	 -2.55097E-004	  7.13910E-005
  3.67002E+002	 -2.44795E-004	  1.52613E-003	 -9.05374E-004	  7.01580E-002	 -5.50968E-004	  2.95868E-004	  4.67487E-004	  2.38551E-004
  3.93216E+002	 -3.91838E-004	  7.77508E-004	 -5.12360E-005	  6.99523E-002	  5.47793E-004	 -4.16547E-004	 -5.82985E-004	  1.35615E-004
  4.19430E+002	  4.63535E-004	  6.42425E-004	 -4.42279E-004	  6.18773E-002	  9.25699E-004	 -1.71456E-004	 -6.04697E-004	 -1.96332E-004
  4.71859E+002	 -1.40036E-003	  1.11084E-003	  7.10150E-005	  6.26261E-002	  3.14030E-004	  3.39626E-004	 -2.59632E-004	  1.92249E-004
  5.24288E+002	 -3.84164E-004	  5.20283E-004	  6.24309E-004	  6.36796E-002	  2.59998E-004	 -9.11866E-005	 -3.72369E-004	  1.99214E-004
  5.76717E+002	  3.72182E-004	  7.92583E-004	 -5.08390E-004	  6.32095E-002	  6.34795E-004	 -2.58372E-004	 -3.37754E-004	 -1.54435E-004
  6.29146E+002	  5.03607E-004	  5.52596E-004	  1.08598E-005	  6.44991E-002	  6.35640E-004	 -6.37004E-005	 -1.56855E-004	  6.17421E-005
  6.81574E+002	 -5.91204E-004	  3.67249E-004	  8.30019E-005	  6.41703E-002	 -1.42701E-004	  1.26203E-004	 -1.82829E-004	 -1.23944E-004
  7.34003E+002	 -6.50834E-004	  7.98378E-004	  7.23577E-005	  6.55459E-002	  6.84879E-004	  1.95759E-004	 -1.39328E-004	 -6.00297E-005
  7.86432E+002	 -7.89443E-004	  9.69839E-004	  1.11001E-004	  6.63814E-002	  1.13308E-003	  1.67915E-005	 -1.54258E-004	  3.76550E-005
  8.38861E+002	 -5.80941E-005	  1.21321E-003	 -4.80596E-006	  5.25436E-002	  7.65411E-004	  2.91474E-004	  1.46566E-004	  8.83486E-005
  9.43718E+002	  1.37242E-004	  6.67632E-004	  3.47636E-004	  5.31736E-002	  4.19072E-004	 -3.32048E-004	 -6.81095E-007	  5.75317E-005
  1.04858E+003	  5.28394E-005	  1.11040E-003	  1.31481E-005	  5.40858E-002	  2.57276E-004	 -4.69686E-004	 -2.01260E-004	 -3.02887E-005
  1.15343E+003	  5.75550E-004	  6.57802E-004	 -3.72951E-005	  5.46105E-002	  1.80038E-004	  4.68148E-004	  7.61343E-005	 -8.72196E-006
  1.25829E+003	  4.91357E-004	  7.20128E-005	  1.80693E-005	  5.47327E-002	  6.05165E-004	  4.33460E-005	 -1.00839E-004	  7.40292E-005
  1.36315E+003	  1.46015E-004	 -1.87334E-005	  2.09579E-004	  5.58511E-002	  4.87794E-004	 -4.57809E-004	  2.53956E-004	 -1.25419E-005
  1.46801E+003	 -3.63767E-005	  6.78609E-004	  3.11050E-004	  5.68980E-002	  8.54607E-005	  4.32670E-004	  2.21825E-004	  5.98844E-005
  1.57286E+003	 -1.93225E-004	  8.39335E-004	  2.96831E-004	  5.77705E-002	  3.62862E-004	 -2.04885E-005	  5.76350E-005	 -5.12457E-005
  1.67772E+003	  1.82503E-004	  6.09811E-004	 -1.92653E-004	  4.08101E-002	  3.76047E-004	 -1.25233E-004	 -3.25702E-006	 -4.75307E-005
  1.88744E+003	 -1.31211E-004	  5.37810E-004	  1.90378E-004	  4.16541E-002	  4.73707E-005	  1.47923E-004	 -2.05132E-004	 -3.82504E-005
  2.09715E+003	  1.11042E-004	  4.86882E-004	 -1.84398E-004	  4.24412E-002	  5.90883E-004	 -3.18023E-004	  2.06375E-004	 -2.62259E-005
  2.30687E+003	  2.51518E-004	  7.54016E-004	  5.25949E-005	  4.31740E-002	  4.78067E-004	  2.17683E-004	 -2.59594E-004	 -1.34030E-004
  2.51658E+003	  4.85890E-005	  1.10010E-003	 -2.34558E-005	  4.39660E-002	  7.56338E-004	  1.79197E-004	  9.21914E-005	 -1.59134E-004
  2.72630E+003	  1.28043E-004	  1.82622E-004	 -9.59471E-005	  4.55486E-002	  2.12697E-004	  1.04714E-004	  7.54669E-005	 -1.43530E-004
  2.93601E+003	  4.43491E-004	  1.73723E-004	 -1.58850E-004	  4.71815E-002	  3.22318E-004	 -1.37037E-004	 -7.90111E-005	  3.62747E-005
"Count Rate"
       0.11679	       1.33904	       2.14076	       1.97871	       3.67597	       2.00430	       2.18341	       2.48192	       4.50327
       0.23357	       1.40727	       1.79108	       2.02989	       3.89772	       2.07253	       2.46486	       2.76337	       3.95742
       0.35036	       1.50109	       1.89342	       2.06400	       3.64185	       2.00430	       2.21752	       2.84013	       3.71861
       0.46714	       1.49256	       2.27722	       1.93607	       3.65891	       1.89342	       2.22605	       2.72073	       4.01713
       0.58393	       1.56932	       2.13223	       2.03841	       3.74420	       1.74843	       2.10665	       2.81455	       4.23888
       0.70072	       1.28787	       1.80813	       1.98724	       3.80390	       1.93607	       2.10665	       2.64397	       4.12800
       0.81750	       1.22817	       1.99577	       1.91048	       3.80390	       1.81666	       2.34546	       2.49898	       4.02565
       0.93429	       1.50109	       2.08106	       1.91901	       3.59068	       1.87636	       2.05547	       2.75484	       3.89772
       1.05107	       1.57785	       1.97018	       2.03841	       3.42010	       1.53521	       2.65250	       2.60985	       3.76126
       1.16786	       1.50962	       2.11517	       1.73990	       3.34334	       2.26017	       2.35398	       2.76337	       4.16212
       1.28465	       1.46698	       1.89342	       2.16635	       2.79749	       1.95313	       2.10665	       2.84866	       3.73567
       1.40143	       1.65461	       1.92754	       2.29428	       3.40304	       1.84225	       2.12370	       2.86572	       4.17918
       1.51822	       1.63755	       1.81666	       2.02989	       3.33481	       2.30281	       2.43927	       2.60985	       4.30711
       1.63500	       1.51815	       1.94460	       1.91048	       3.28364	       1.85078	       2.39663	       2.63544	       3.71008
       1.75179	       1.68020	       1.82519	       1.86784	       2.88278	       1.81666	       2.37104	       2.63544	       4.22182
       1.86858	       1.42433	       1.89342	       1.93607	       2.67808	       1.79960	       2.45633	       2.79749	       4.11094
       1.98536	       1.52668	       1.85931	       2.07253	       2.74632	       1.87636	       2.14076	       2.50751	       4.00007
       2.10215	       1.35610	       1.99577	       1.85078	       2.84013	       1.79108	       2.27722	       2.64397	       4.13653
       2.21894	       1.56079	       2.08959	       2.03841	       3.03630	       1.95313	       2.22605	       2.66956	       4.11947
       2.33572	       1.50109	       1.73137	       2.08106	       3.13012	       1.82519	       2.19194	       2.93395	       4.05977
       2.45251	       1.60344	       1.75696	       1.98724	       2.78896	       1.95313	       2.27722	       2.55015	       4.09389
       2.56929	       1.59491	       1.79108	       2.19194	       3.39451	       1.85078	       2.31987	       2.97660	       3.74420
       2.68608	       1.44139	       2.03841	       2.20046	       2.60985	       1.90195	       1.98724	       2.85719	       4.05124
       2.80287	       1.68020	       1.98724	       2.07253	       3.01924	       1.67167	       2.18341	       2.92542	       3.90625
       2.91965	       1.60344	       1.81666	       2.09812	       2.60985	       1.91901	       2.29428	       2.65250	       4.17918
       3.03644	       1.58638	       1.95313	       2.04694	       2.79749	       1.94460	       2.04694	       2.59279	       4.00860
       3.15322	       1.33051	       2.21752	       2.10665	       3.00218	       2.12370	       2.36251	       2.54162	       4.35828
       3.27001	       1.45845	       1.99577	       1.97018	       3.13865	       1.90195	       2.25164	       2.66103	       4.41799
       3.38680	       1.33904	       1.88489	       1.96165	       2.80602	       2.03841	       2.14929	       2.88278	       4.16212
       3.50358	       1.30493	       1.92754	       2.03841	       2.60132	       1.95313	       2.18341	       2.78043	       4.19623
       3.62037	       1.42433	       1.89342	       1.96165	       2.75484	       2.07253	       2.23458	       2.66956	       4.00860
       3.73715	       1.29640	       2.10665	       1.96165	       2.84866	       1.79108	       2.31987	       2.84866	       4.05977
       3.85394	       1.62050	       1.57785	       1.87636	       2.95101	       1.96165	       2.23458	       2.95101	       4.23035
       3.97073	       1.71431	       2.12370	       2.14076	       2.87425	       2.08959	       2.16635	       2.57574	       4.12800
       4.08751	       1.34757	       1.98724	       2.07253	       2.71220	       1.72284	       2.26870	       2.49045	       3.90625
       4.20430	       1.43286	       1.81666	       2.05547	       2.80602	       2.20046	       2.15782	       2.86572	       4.11094
       4.32108	       1.50109	       1.98724	       2.06400	       2.84013	       1.96165	       2.15782	       2.64397	       3.95742
       4.43787	       1.38169	       2.31987	       2.24311	       2.66103	       1.91901	       2.65250	       2.43927	       4.02565
       4.55466	       1.53521	       1.77402	       2.14929	       3.01924	       1.80813	       2.04694	       2.79749	       3.95742
       4.67144	       1.41580	       2.09812	       2.11517	       2.84866	       1.91048	       2.11517	       2.62691	       4.23035
       4.78823	       1.44992	       1.91048	       2.08106	       2.71220	       1.90195	       2.04694	       2.72073	       3.87213
       4.90501	       1.21111	       1.84225	       2.01283	       2.87425	       1.69726	       2.26870	       3.05336	       4.13653
       5.02180	       1.48403	       1.93607	       2.22605	       2.66103	       1.96165	       2.05547	       2.89984	       4.00007
       5.13859	       1.57785	       2.14076	       1.90195	       2.64397	       1.95313	       2.24311	       2.89984	       4.10242
       5.25537	       1.59491	       1.98724	       1.97018	       2.80602	       1.80813	       2.18341	       2.49045	       4.31564
       5.37216	       1.61197	       2.19194	       2.10665	       2.65250	       1.77402	       2.39663	       2.52456	       3.97448
       5.48894	       1.40727	       2.02136	       1.95313	       2.71220	       1.85078	       2.40516	       2.48192	       4.06830
       5.60573	       1.61197	       2.18341	       1.91901	       2.71220	       1.65461	       2.41369	       2.72073	       4.03418
       5.72252	       1.48403	       1.72284	       2.08106	       2.67808	       1.84225	       2.08959	       2.68661	       3.98301
       5.83930	       1.46698	       2.04694	       2.02989	       2.51603	       1.72284	       2.07253	       2.72073	       3.98301
       5.95609	       1.27081	       1.91048	       2.26017	       2.55015	       1.95313	       2.15782	       2.61838	       4.17065
       6.07287	       1.36463	       1.98724	       2.02989	       2.66956	       1.74843	       2.42222	       2.23458	       4.13653
       6.18966	       1.39022	       1.93607	       2.17488	       2.37957	       2.08959	       2.43927	       2.54162	       4.21329
       6.30645	       1.62903	       2.02136	       2.13223	       2.55015	       1.73137	       2.13223	       2.65250	       4.05124
       6.42323	       1.50962	       1.88489	       2.08959	       2.47339	       1.90195	       2.27722	       2.89984	       4.16212
       6.54002	       1.49256	       1.99577	       1.91901	       2.53309	       1.92754	       2.33693	       2.73779	       4.07683
       6.65680	       1.33904	       1.91901	       1.98724	       2.32840	       1.84225	       2.15782	       2.81455	       4.06830
       6.77359	       1.39022	       2.47339	       2.08106	       2.37104	       2.00430	       2.14929	       2.90837	       3.72714
       6.89038	       1.59491	       1.73137	       2.10665	       2.20899	       1.91901	       2.30281	       2.97660	       4.04271
       7.00716	       1.40727	       1.90195	       1.87636	       2.41369	       1.73990	       2.11517	       3.05336	       3.66744
       7.12395	       1.44992	       2.01283	       2.19194	       2.43075	       1.77402	       2.02989	       2.51603	       4.00860
       7.24074	       1.74843	       1.88489	       2.04694	       1.94460	       1.94460	       2.35398	       2.60985	       4.07683
       7.35752	       1.49256	       1.84225	       2.28575	       2.39663	       1.64608	       2.40516	       2.53309	       4.33270
       7.47431	       1.33051	       1.79108	       2.12370	       1.98724	       1.90195	       2.21752	       2.43927	       4.05124
       7.59109	       1.61197	       1.77402	       2.26870	       2.18341	       1.90195	       2.49045	       2.37104	       3.94037
       7.70788	       1.44992	       1.69726	       1.83372	       2.19194	       1.91048	       2.28575	       2.45633	       3.87213
       7.82467	       1.36463	       1.89342	       2.02136	       2.14076	       1.82519	       2.37957	       2.84013	       4.41799
       7.94145	       1.38169	       1.75696	       2.02136	       1.99577	       1.77402	       2.37957	       2.81455	       3.83802
       8.05824	       1.52668	       1.77402	       2.08106	       2.15782	       1.88489	       2.34546	       2.43927	       3.73567
       8.17502	       1.33904	       1.78255	       2.21752	       2.11517	       1.94460	       2.30281	       2.72073	       4.06830
       8.29181	       1.43286	       1.72284	       2.34546	       2.00430	       1.95313	       2.04694	       2.87425	       4.05124
       8.40860	       1.60344	       1.90195	       2.07253	       2.16635	       1.73137	       2.31987	       2.86572	       4.09389
       8.52538	       1.61197	       1.73137	       2.05547	       2.02989	       2.02989	       2.19194	       2.94248	       3.96595
       8.64217	       1.44139	       1.86784	       1.89342	       1.92754	       1.76549	       2.21752	       2.43927	       3.76979
       8.75895	       1.59491	       1.89342	       1.92754	       1.86784	       1.68873	       2.19194	       2.66956	       3.80390
       8.87574	       1.52668	       1.91048	       2.04694	       2.13223	       1.91901	       2.06400	       2.54162	       4.08536
       8.99253	       1.32198	       1.94460	       1.86784	       1.77402	       1.74843	       2.35398	       2.59279	       3.72714
       9.10931	       1.49256	       1.78255	       2.11517	       1.86784	       1.72284	       2.18341	       3.00218	       3.95742
       9.22610	       1.38169	       2.02989	       2.19194	       2.08959	       1.94460	       2.29428	       2.93395	       4.36681
       9.34288	       1.25375	       1.83372	       1.80813	       1.85078	       1.65461	       2.27722	       2.95101	       4.11947
       9.45967	       1.72284	       1.77402	       2.08106	       1.83372	       1.54374	       2.47339	       2.71220	       4.24741
       9.57646	       1.51815	       1.91901	       2.08959	       1.73990	       1.85078	       1.88489	       2.73779	       4.05124
       9.69324	       1.27081	       1.93607	       2.13223	       1.75696	       1.86784	       2.24311	       2.88278	       3.97448
       9.81003	       1.52668	       1.67167	       2.10665	       2.06400	       1.95313	       2.24311	       2.70367	       4.18770
       9.92681	       1.45845	       1.92754	       2.06400	       2.21752	       1.79960	       2.19194	       2.85719	       4.29858
      10.04360	       1.44139	       1.83372	       2.05547	       2.11517	       1.68020	       2.41369	       2.78896	       4.04271
      10.16039	       1.50962	       1.87636	       2.03841	       2.08959	       1.91048	       2.21752	       2.61838	       3.98301
      10.27717	       1.49256	       2.02136	       1.90195	       1.99577	       1.72284	       2.43075	       2.49045	       4.17065
      10.39396	       1.43286	       1.54374	       1.85931	       2.01283	       1.94460	       2.17488	       2.81455	       4.30711
      10.51074	       1.62050	       1.85931	       2.08959	       1.99577	       1.69726	       2.30281	       2.72073	       3.97448
      10.62753	       1.74843	       1.84225	       2.08106	       2.02136	       1.79108	       2.33693	       2.51603	       4.20476
      10.74432	       1.68020	       2.12370	       2.29428	       1.71431	       1.89342	       2.26017	       2.78043	       4.00007
      10.86110	       1.42433	       1.69726	       2.07253	       2.16635	       1.97871	       2.14076	       2.69514	       3.74420
      10.97789	       1.32198	       1.90195	       1.99577	       2.01283	       2.07253	       2.28575	       2.54162	       3.90625
      11.09467	       1.32198	       2.03841	       2.02136	       2.21752	       1.90195	       2.37104	       3.07894	       4.29858
      11.21146	       1.36463	       1.96165	       1.89342	       1.97871	       1.66314	       2.31134	       2.70367	       3.88066
      11.32825	       1.37316	       1.79108	       2.14076	       2.02136	       1.41580	       2.42222	       2.67808	       4.21329
      11.44503	       1.50109	       1.84225	       2.08959	       2.04694	       1.83372	       1.95313	       2.52456	       3.84655
      11.56182	       1.67167	       1.98724	       2.07253	       1.93607	       1.85078	       2.54162	       3.01924	       4.10242
      11.67861	       1.50109	       1.85931	       1.79108	       1.85931	       1.64608	       2.33693	       2.59279	       4.18770
      11.79539	       1.44139	       1.96165	       2.26017	       1.97871	       1.73990	       2.32840	       2.80602	       3.93184
      11.91218	       1.64608	       1.84225	       2.13223	       1.94460	       1.94460	       2.09812	       2.91689	       4.00007
      12.02896	       1.41580	       1.92754	       1.97018	       1.70579	       1.60344	       2.31987	       2.63544	       3.96595
      12.14575	       1.53521	       1.67167	       1.94460	       1.99577	       1.76549	       2.19194	       2.63544	       4.23888
      12.26254	       1.60344	       1.85931	       2.06400	       1.95313	       1.86784	       2.16635	       2.49898	       3.82096
      12.37932	       1.46698	       1.72284	       2.05547	       1.87636	       1.95313	       2.06400	       2.73779	       3.62480
      12.49611	       1.62903	       1.68873	       2.12370	       1.88489	       1.67167	       2.18341	       2.96807	       4.05124
      12.61289	       1.47550	       1.94460	       2.02136	       2.02989	       1.77402	       2.09812	       2.49898	       3.72714
      12.72968	       1.40727	       1.73137	       2.04694	       2.02136	       1.84225	       2.29428	       2.89131	       4.04271
      12.84647	       1.42433	       1.89342	       1.93607	       1.79960	       1.63755	       2.50751	       2.84866	       4.05124
      12.96325	       1.44992	       1.62903	       2.29428	       1.81666	       1.75696	       2.39663	       2.78043	       4.26446
      13.08004	       1.40727	       1.98724	       1.95313	       1.80813	       1.72284	       2.34546	       2.80602	       3.73567
      13.19682	       1.54374	       1.68873	       2.15782	       1.62050	       1.73137	       2.16635	       2.56721	       4.23035
      13.31361	       1.46698	       1.73990	       2.07253	       1.99577	       1.82519	       1.90195	       2.41369	       4.16212
      13.43040	       1.43286	       1.96165	       1.85931	       1.87636	       1.68873	       2.48192	       2.57574	       3.87213
      13.54718	       1.43286	       1.91901	       1.95313	       1.91901	       1.79960	       2.27722	       2.66103	       3.97448
      13.66397	       1.43286	       1.91048	       2.14929	       1.69726	       1.69726	       2.31134	       2.53309	       3.98301
      13.78075	       1.50109	       1.75696	       2.23458	       1.91901	       1.55227	       2.23458	       2.71220	       3.91478
      13.89754	       1.24522	       1.94460	       2.23458	       1.89342	       1.82519	       2.05547	       2.75484	       3.92331
      14.01433	       1.61197	       1.73990	       2.14076	       1.75696	       1.78255	       2.34546	       2.66956	       4.10242
      14.13111	       1.49256	       1.86784	       2.14076	       2.07253	       1.70579	       2.26017	       2.61838	       4.18770
      14.24790	       1.55227	       1.92754	       1.90195	       1.93607	       1.80813	       2.18341	       2.48192	       3.98301
      14.36468	       1.69726	       1.68020	       2.15782	       1.96165	       1.81666	       2.32840	       2.53309	       4.23888
      14.48147	       1.57785	       1.68873	       2.03841	       1.69726	       1.84225	       2.04694	       2.89984	       4.42651
      14.59826	       1.56932	       1.88489	       2.00430	       2.06400	       1.68873	       2.12370	       3.06189	       4.04271
      14.71504	       1.52668	       1.65461	       1.94460	       1.84225	       1.81666	       2.05547	       2.77190	       4.01713
      14.83183	       1.53521	       1.84225	       2.05547	       1.90195	       1.99577	       2.26017	       2.37104	       4.25594
      14.94861	       1.46698	       2.03841	       1.97871	       1.82519	       1.83372	       2.06400	       2.45633	       4.07683
      15.06540	       1.69726	       1.80813	       2.02989	       1.78255	       1.97018	       2.08959	       2.63544	       4.24741
      15.18219	       1.48403	       2.00430	       1.90195	       1.92754	       1.80813	       2.12370	       2.78896	       3.83802
      15.29897	       1.34757	       2.07253	       2.34546	       1.89342	       1.80813	       2.27722	       2.45633	       4.01713
      15.41576	       1.44992	       1.62050	       2.10665	       1.83372	       1.79108	       2.20046	       2.84866	       3.82949
      15.53254	       1.44139	       1.85931	       1.88489	       1.93607	       1.80813	       2.23458	       2.73779	       3.87213
      15.64933	       1.54374	       1.99577	       2.02989	       1.42433	       1.80813	       2.17488	       2.91689	       3.81243
      15.76612	       1.53521	       1.75696	       2.20046	       1.85931	       1.73990	       2.11517	       2.28575	       4.19623
      15.88290	       1.36463	       1.91048	       1.68873	       1.61197	       1.74843	       2.37104	       2.73779	       4.23035
      15.99969	       1.40727	       1.60344	       1.85078	       1.74843	       1.48403	       2.32840	       2.55015	       4.00007
      16.11647	       1.56932	       1.78255	       1.89342	       1.79108	       1.89342	       2.08959	       2.49045	       3.48833
      16.23326	       1.43286	       1.79108	       2.04694	       1.85931	       1.65461	       2.33693	       2.73779	       3.97448
      16.35005	       1.21111	       1.98724	       2.19194	       1.69726	       2.06400	       2.38810	       2.78043	       4.17918
      16.46683	       1.41580	       1.83372	       2.12370	       1.82519	       1.79960	       2.15782	       2.65250	       3.57362
      16.58362	       1.44992	       1.44139	       1.93607	       1.75696	       1.84225	       2.06400	       2.74632	       4.18770
      16.70041	       1.58638	       1.84225	       2.09812	       1.66314	       1.61197	       2.41369	       2.61838	       3.93184
      16.81719	       1.49256	       1.72284	       2.05547	       1.46698	       1.77402	       2.22605	       2.95954	       3.91478
      16.93398	       1.65461	       1.81666	       1.89342	       1.91901	       1.83372	       2.35398	       2.57574	       3.95742
      17.05076	       1.29640	       1.74843	       1.91901	       1.57785	       2.00430	       2.26017	       3.08747	       3.99154
      17.16755	       1.65461	       2.18341	       1.87636	       1.73137	       1.79108	       2.12370	       2.59279	       3.88066
      17.28433	       1.55227	       1.89342	       2.24311	       1.58638	       1.73990	       2.33693	       2.47339	       3.82949
      17.40112	       1.59491	       1.86784	       1.99577	       1.92754	       1.65461	       2.14929	       2.53309	       4.00860
      17.51791	       1.58638	       1.99577	       2.14076	       1.66314	       1.70579	       2.13223	       2.50751	       4.06830
      17.63469	       1.44139	       1.85078	       1.92754	       1.69726	       1.77402	       2.09812	       2.92542	       3.83802
      17.75148	       1.52668	       1.99577	       2.00430	       1.67167	       1.99577	       2.24311	       2.86572	       4.06830
      17.86827	       1.56932	       1.86784	       1.98724	       1.52668	       1.79108	       2.18341	       2.95954	       4.10242
      17.98505	       1.53521	       1.91048	       1.99577	       1.54374	       1.60344	       2.33693	       2.70367	       3.95742
      18.10184	       1.39022	       1.96165	       1.99577	       1.81666	       1.65461	       2.19194	       2.72926	       4.15359
      18.21862	       1.57785	       1.83372	       2.14929	       1.56932	       1.74843	       2.16635	       2.78896	       4.10242
      18.33541	       1.51815	       1.85078	       2.02989	       1.73990	       1.86784	       2.08106	       2.66956	       3.99154
      18.45220	       1.49256	       1.73990	       2.14076	       1.76549	       1.79960	       2.14076	       2.73779	       4.41799
      18.56898	       1.52668	       1.81666	       1.84225	       1.74843	       1.79108	       2.15782	       3.03630	       4.18770
      18.68577	       1.52668	       2.09812	       1.88489	       1.52668	       1.82519	       2.14076	       2.79749	       4.29858
      18.80255	       1.57785	       2.04694	       2.12370	       1.76549	       1.72284	       2.35398	       2.63544	       4.25594
      18.91934	       1.34757	       1.83372	       2.14929	       1.74843	       1.90195	       2.37104	       3.05336	       4.10242
      19.03613	       1.53521	       1.87636	       2.05547	       1.91901	       1.65461	       1.99577	       2.72073	       4.11947
      19.15291	       1.65461	       1.57785	       2.06400	       1.58638	       1.83372	       2.31987	       3.05336	       4.08536
      19.26970	       1.36463	       1.81666	       2.02989	       1.55227	       1.87636	       2.37957	       2.83160	       3.94037
      19.38648	       1.65461	       1.68873	       2.02136	       1.56932	       1.73137	       2.23458	       2.59279	       4.24741
      19.50327	       1.51815	       1.72284	       1.96165	       1.71431	       1.88489	       2.21752	       2.65250	       4.13653
      19.62006	       1.54374	       1.86784	       1.97018	       1.90195	       2.06400	       2.48192	       2.66956	       3.88066
      19.73684	       1.63755	       1.99577	       2.22605	       1.50109	       1.66314	       2.09812	       2.60132	       4.14506
      19.85363	       1.39022	       2.08106	       1.91901	       1.53521	       1.83372	       2.19194	       2.51603	       4.15359
      19.97042	       1.39022	       1.68873	       2.18341	       1.83372	       1.75696	       2.20046	       2.71220	       3.72714
      20.08720	       1.39022	       1.73990	       2.02136	       1.67167	       1.88489	       2.23458	       2.72926	       4.29005
      20.20399	       1.34757	       1.80813	       1.78255	       1.53521	       1.83372	       2.30281	       2.66103	       3.87213
      20.32077	       1.33051	       1.55227	       2.02989	       1.64608	       1.84225	       2.14076	       2.57574	       3.92331
      20.43756	       1.35610	       1.88489	       2.05547	       1.60344	       1.78255	       2.47339	       2.84013	       4.14506
      20.55434	       1.66314	       1.87636	       1.95313	       1.70579	       1.73990	       2.19194	       2.58427	       3.94889
      20.67113	       1.44992	       1.93607	       2.44780	       1.58638	       1.93607	       2.31987	       2.68661	       4.11947
      20.78792	       1.33051	       1.91048	       2.21752	       1.70579	       1.80813	       2.30281	       2.64397	       3.86361
      20.90470	       1.64608	       1.73137	       1.79960	       1.73137	       1.91048	       2.19194	       2.73779	       4.26446
      21.02149	       1.50109	       1.81666	       2.18341	       1.53521	       1.62903	       2.21752	       2.43927	       4.26446
      21.13828	       1.44139	       1.86784	       1.91901	       1.75696	       1.80813	       2.09812	       2.74632	       3.76979
      21.25506	       1.37316	       2.17488	       2.28575	       1.51815	       1.79108	       2.21752	       2.65250	       4.16212
      21.37185	       1.27934	       1.68020	       2.14929	       1.56079	       1.67167	       2.26870	       2.61838	       3.75273
      21.48863	       1.53521	       1.70579	       1.99577	       1.62903	       1.72284	       2.20899	       2.60985	       4.07683
      21.60542	       1.50109	       1.68873	       1.95313	       1.79108	       1.85078	       2.18341	       2.98513	       3.66744
      21.72220	       1.23669	       2.04694	       1.99577	       1.64608	       1.83372	       2.26870	       2.73779	       3.82949
      21.83899	       1.30493	       1.99577	       2.08959	       1.81666	       1.80813	       2.09812	       2.88278	       4.00007
      21.95578	       1.56079	       1.56932	       2.14929	       1.73137	       1.64608	       2.39663	       2.83160	       3.87213
      22.07256	       1.46698	       1.85078	       2.00430	       1.56932	       2.02136	       2.31134	       2.78896	       3.96595
      22.18935	       1.56079	       1.88489	       2.26017	       1.84225	       1.90195	       2.57574	       2.63544	       3.96595
      22.30614	       1.35610	       1.85078	       2.05547	       1.43286	       1.62903	       2.20899	       2.80602	       3.82096
      22.42292	       1.47550	       1.52668	       1.99577	       1.60344	       1.86784	       2.20046	       2.99365	       4.00007
      22.53971	       1.51815	       1.79960	       2.16635	       1.72284	       1.47550	       2.33693	       2.89131	       4.20476
      22.65649	       1.58638	       1.74843	       2.22605	       1.41580	       1.96165	       2.12370	       3.02777	       4.38387
      22.77328	       1.29640	       1.75696	       1.98724	       1.56932	       1.70579	       2.25164	       2.82308	       3.71008
      22.89007	       1.47550	       1.73990	       2.08106	       1.51815	       1.69726	       2.30281	       2.60985	       4.10242
      23.00685	       1.65461	       2.02136	       2.21752	       1.51815	       1.88489	       2.50751	       2.72926	       4.02565
      23.12364	       1.41580	       1.72284	       2.05547	       1.62050	       1.67167	       2.07253	       2.59279	       3.86361
      23.24042	       1.47550	       1.77402	       1.82519	       1.64608	       1.88489	       2.35398	       2.64397	       3.71008
      23.35721	       1.53521	       2.03841	       2.31134	       1.57785	       1.79960	       2.45633	       2.60985	       4.37534
      23.47400	       1.44139	       1.85931	       2.10665	       1.55227	       1.97018	       2.35398	       2.66103	       4.25594
      23.59078	       1.57785	       1.72284	       1.97018	       1.68020	       1.71431	       2.15782	       2.68661	       4.07683
      23.70757	       1.34757	       1.78255	       2.18341	       1.43286	       1.68873	       2.37957	       3.01924	       4.05977
      23.82435	       1.35610	       1.87636	       2.14929	       1.35610	       1.88489	       2.31987	       2.76337	       3.99154
      23.94114	       1.31346	       1.80813	       2.10665	       1.49256	       1.62050	       2.20046	       2.88278	       4.20476
      24.05793	       1.55227	       1.74843	       2.14929	       1.45845	       1.73990	       2.12370	       2.66956	       3.66744
      24.17471	       1.52668	       2.00430	       2.14929	       1.33904	       1.88489	       2.26017	       2.76337	       3.94889
      24.29150	       1.50962	       2.04694	       2.12370	       1.72284	       1.89342	       2.33693	       2.58427	       4.09389
      24.40828	       1.27934	       1.83372	       2.14076	       1.58638	       1.97018	       2.21752	       2.87425	       4.14506
      24.52507	       1.39022	       1.62050	       1.88489	       1.50962	       1.90195	       2.34546	       2.72073	       4.09389
      24.64186	       1.27081	       1.72284	       2.26870	       1.41580	       1.75696	       2.22605	       2.86572	       3.79537
      24.75864	       1.44139	       1.81666	       2.26017	       1.57785	       1.83372	       2.17488	       2.88278	       4.15359
      24.87543	       1.34757	       1.61197	       1.97018	       1.55227	       1.50109	       2.60985	       2.62691	       3.84655
      24.99221	       1.35610	       1.94460	       1.72284	       1.64608	       1.83372	       2.07253	       2.66956	       3.94037
      25.10900	       1.45845	       1.67167	       2.06400	       1.55227	       1.78255	       2.10665	       2.76337	       4.29858
      25.22579	       1.42433	       1.96165	       2.16635	       1.51815	       1.73990	       2.23458	       2.85719	       3.87213
      25.34257	       1.45845	       1.73990	       2.02136	       1.48403	       2.05547	       2.12370	       2.76337	       4.12800
      25.45936	       1.67167	       1.73990	       1.83372	       1.64608	       1.73990	       2.08959	       2.78896	       4.23035
      25.57615	       1.46698	       1.91901	       2.01283	       1.61197	       1.79960	       2.43927	       2.69514	       4.29858
      25.69293	       1.41580	       1.59491	       2.08959	       1.50109	       1.77402	       2.22605	       2.62691	       4.17918
      25.80972	       1.50109	       2.00430	       1.98724	       1.68020	       1.90195	       2.05547	       2.69514	       3.90625
      25.92650	       1.53521	       1.94460	       1.95313	       1.65461	       1.74843	       2.35398	       2.78896	       4.01713
      26.04329	       1.15141	       1.91048	       2.31134	       1.53521	       1.54374	       2.14076	       2.66956	       3.81243
      26.16007	       1.51815	       1.79960	       1.79960	       1.44139	       1.77402	       2.23458	       2.61838	       4.08536
      26.27686	       1.29640	       1.74843	       1.89342	       1.53521	       1.86784	       2.30281	       2.74632	       4.17918
      26.39365	       1.44992	       1.92754	       1.98724	       1.74843	       1.70579	       2.31987	       2.74632	       4.34975
      26.51043	       1.54374	       1.89342	       1.99577	       1.56932	       1.58638	       2.17488	       2.60132	       3.69303
      26.62722	       1.35610	       1.87636	       1.88489	       1.58638	       1.73990	       2.02989	       2.69514	       3.94889
      26.74401	       1.46698	       1.73990	       2.14076	       1.54374	       1.70579	       2.45633	       2.80602	       4.46063
      26.86079	       1.50109	       1.78255	       2.19194	       1.57785	       1.98724	       2.24311	       2.69514	       4.05977
      26.97758	       1.39022	       1.81666	       1.85078	       1.69726	       1.70579	       2.22605	       3.14718	       4.30711
      27.09436	       1.54374	       1.70579	       2.01283	       1.60344	       1.79960	       2.25164	       2.72073	       4.00007
      27.21115	       1.58638	       1.50962	       1.94460	       1.59491	       1.93607	       2.19194	       2.92542	       4.18770
      27.32793	       1.38169	       1.68873	       2.04694	       1.46698	       1.70579	       2.35398	       2.96807	       4.00860
      27.44472	       1.35610	       1.85931	       2.04694	       1.64608	       1.77402	       2.07253	       2.89131	       3.97448
      27.56151	       1.33904	       1.83372	       2.15782	       1.58638	       1.95313	       2.24311	       2.49898	       4.33270
      27.67829	       1.49256	       1.80813	       2.05547	       1.56079	       1.88489	       2.24311	       2.82308	       4.17918
      27.79508	       1.42433	       1.70579	       2.07253	       1.51815	       1.91901	       1.90195	       2.60985	       4.09389
      27.91187	       1.56932	       1.67167	       2.06400	       1.62050	       1.80813	       2.26017	       2.78043	       4.13653
      28.02865	       1.30493	       1.73137	       1.86784	       1.48403	       1.86784	       2.28575	       2.77190	       3.88919
      28.14544	       1.38169	       1.68020	       2.01283	       1.66314	       1.74843	       2.28575	       2.57574	       4.23035
      28.26222	       1.43286	       1.81666	       2.09812	       1.37316	       1.79960	       2.43927	       2.95101	       4.32417
      28.37901	       1.32198	       2.02136	       2.11517	       1.33051	       1.80813	       2.34546	       2.49898	       4.04271
      28.49580	       1.28787	       1.89342	       2.11517	       1.60344	       1.72284	       2.28575	       2.59279	       3.95742
      28.61258	       1.34757	       1.68873	       1.86784	       1.72284	       1.68873	       2.09812	       2.67808	       4.06830
      28.72937	       1.43286	       1.85931	       1.97018	       1.74843	       1.78255	       2.30281	       2.71220	       3.78684
      28.84615	       1.68020	       1.95313	       1.97871	       1.58638	       1.86784	       2.49898	       2.54162	       4.39240
      28.96294	       1.67167	       1.73990	       2.25164	       1.66314	       1.88489	       2.12370	       2.82308	       4.34123
      29.07973	       1.77402	       1.79108	       1.88489	       1.67167	       1.70579	       2.31987	       2.98513	       4.14506
      29.19651	       1.48403	       1.87636	       1.93607	       1.39022	       1.77402	       2.43927	       2.62691	       3.83802
      29.31330	       1.33904	       1.65461	       1.95313	       1.37316	       1.68873	       2.24311	       2.95101	       3.94889
      29.43008	       1.50962	       1.67167	       2.04694	       1.56932	       1.78255	       2.16635	       2.63544	       4.06830
      29.54687	       1.53521	       1.87636	       2.15782	       1.56079	       1.77402	       2.38810	       2.70367	       3.78684
      29.66366	       1.73990	       1.98724	       2.24311	       1.25375	       1.73990	       2.43927	       2.66103	       4.12800

Monitor Diode	1564489.38
