ALV-7004/USB
Date :	"08.06.2022"
Time :	"14:31:59"
Samplename : 	"Samplename needed."
SampMemo(0) : 	""
SampMemo(1) : 	""
SampMemo(2) : 	""
SampMemo(3) : 	""
SampMemo(4) : 	""
SampMemo(5) : 	""
SampMemo(6) : 	""
SampMemo(7) : 	""
SampMemo(8) : 	""
SampMemo(9) : 	""
Temperature [K] :	     297.92029
Viscosity [cp]  :	       0.89485
Refractive Index:	       1.33200
Wavelength [nm] :	     632.80000
Angle [°]       :	      90.00000
Duration [s]    :	        10
FloatDur [ms]   :	         9961
Stop TP [ms]   :	  16777216
Runs            :	         1
Mode            :	"C-CH0/1+1/0"
MeanCR0 [kHz]   :	     293.54216
MeanCR1 [kHz]   :	     300.27109
MeanCR2 [kHz]   :	       0.00000
MeanCR3 [kHz]   :	       0.00000

"Correlation"
  2.50000E-005	  9.05911E-001	  9.15250E-001	  0.00000E+000	  0.00000E+000
  5.00000E-005	  9.06640E-001	  9.08143E-001	  0.00000E+000	  0.00000E+000
  7.50000E-005	  8.96344E-001	  9.02904E-001	  0.00000E+000	  0.00000E+000
  1.00000E-004	  9.11218E-001	  9.08052E-001	  0.00000E+000	  0.00000E+000
  1.25000E-004	  9.09054E-001	  9.09373E-001	  0.00000E+000	  0.00000E+000
  1.50000E-004	  8.89807E-001	  8.81994E-001	  0.00000E+000	  0.00000E+000
  1.75000E-004	  8.99784E-001	  9.00900E-001	  0.00000E+000	  0.00000E+000
  2.00000E-004	  9.03633E-001	  8.99852E-001	  0.00000E+000	  0.00000E+000
  2.25000E-004	  9.02084E-001	  9.02358E-001	  0.00000E+000	  0.00000E+000
  2.50000E-004	  9.15933E-001	  9.11104E-001	  0.00000E+000	  0.00000E+000
  2.75000E-004	  8.98144E-001	  8.92198E-001	  0.00000E+000	  0.00000E+000
  3.00000E-004	  9.06503E-001	  9.07915E-001	  0.00000E+000	  0.00000E+000
  3.25000E-004	  9.20421E-001	  9.19715E-001	  0.00000E+000	  0.00000E+000
  3.50000E-004	  9.09829E-001	  9.01811E-001	  0.00000E+000	  0.00000E+000
  3.75000E-004	  9.05114E-001	  9.05820E-001	  0.00000E+000	  0.00000E+000
  4.00000E-004	  9.00649E-001	  9.00239E-001	  0.00000E+000	  0.00000E+000
  4.50000E-004	  9.10068E-001	  9.14612E-001	  0.00000E+000	  0.00000E+000
  5.00000E-004	  9.00194E-001	  8.99465E-001	  0.00000E+000	  0.00000E+000
  5.50000E-004	  8.98394E-001	  9.00968E-001	  0.00000E+000	  0.00000E+000
  6.00000E-004	  9.02255E-001	  9.01947E-001	  0.00000E+000	  0.00000E+000
  6.50000E-004	  9.13006E-001	  9.15022E-001	  0.00000E+000	  0.00000E+000
  7.00000E-004	  9.13735E-001	  9.16480E-001	  0.00000E+000	  0.00000E+000
  7.50000E-004	  9.02517E-001	  9.02881E-001	  0.00000E+000	  0.00000E+000
  8.00000E-004	  9.00558E-001	  8.98531E-001	  0.00000E+000	  0.00000E+000
  9.00000E-004	  9.01139E-001	  9.01537E-001	  0.00000E+000	  0.00000E+000
  1.00000E-003	  9.03508E-001	  9.02915E-001	  0.00000E+000	  0.00000E+000
  1.10000E-003	  9.00541E-001	  9.00581E-001	  0.00000E+000	  0.00000E+000
  1.20000E-003	  9.05615E-001	  9.06412E-001	  0.00000E+000	  0.00000E+000
  1.30000E-003	  9.00906E-001	  9.01799E-001	  0.00000E+000	  0.00000E+000
  1.40000E-003	  9.05307E-001	  9.05455E-001	  0.00000E+000	  0.00000E+000
  1.50000E-003	  9.01429E-001	  8.99339E-001	  0.00000E+000	  0.00000E+000
  1.60000E-003	  8.99698E-001	  8.98098E-001	  0.00000E+000	  0.00000E+000
  1.80000E-003	  9.00208E-001	  9.01652E-001	  0.00000E+000	  0.00000E+000
  2.00000E-003	  9.01555E-001	  9.01076E-001	  0.00000E+000	  0.00000E+000
  2.20000E-003	  9.04109E-001	  9.04112E-001	  0.00000E+000	  0.00000E+000
  2.40000E-003	  9.02881E-001	  9.02824E-001	  0.00000E+000	  0.00000E+000
  2.60000E-003	  9.02155E-001	  9.00689E-001	  0.00000E+000	  0.00000E+000
  2.80000E-003	  9.00979E-001	  9.02038E-001	  0.00000E+000	  0.00000E+000
  3.00000E-003	  9.01825E-001	  9.02716E-001	  0.00000E+000	  0.00000E+000
  3.20000E-003	  8.98488E-001	  9.02289E-001	  0.00000E+000	  0.00000E+000
  3.60000E-003	  8.97555E-001	  8.97876E-001	  0.00000E+000	  0.00000E+000
  4.00000E-003	  8.96825E-001	  8.95544E-001	  0.00000E+000	  0.00000E+000
  4.40000E-003	  8.98209E-001	  8.97085E-001	  0.00000E+000	  0.00000E+000
  4.80000E-003	  8.98343E-001	  8.96262E-001	  0.00000E+000	  0.00000E+000
  5.20000E-003	  8.98656E-001	  8.99371E-001	  0.00000E+000	  0.00000E+000
  5.60000E-003	  8.99755E-001	  8.97916E-001	  0.00000E+000	  0.00000E+000
  6.00000E-003	  8.96899E-001	  8.97272E-001	  0.00000E+000	  0.00000E+000
  6.40000E-003	  8.95141E-001	  8.93783E-001	  0.00000E+000	  0.00000E+000
  7.20000E-003	  8.94826E-001	  8.95269E-001	  0.00000E+000	  0.00000E+000
  8.00000E-003	  8.93504E-001	  8.93345E-001	  0.00000E+000	  0.00000E+000
  8.80000E-003	  8.93196E-001	  8.93735E-001	  0.00000E+000	  0.00000E+000
  9.60000E-003	  8.90855E-001	  8.92140E-001	  0.00000E+000	  0.00000E+000
  1.04000E-002	  8.90869E-001	  8.90188E-001	  0.00000E+000	  0.00000E+000
  1.12000E-002	  8.89840E-001	  8.88615E-001	  0.00000E+000	  0.00000E+000
  1.20000E-002	  8.87585E-001	  8.85664E-001	  0.00000E+000	  0.00000E+000
  1.28000E-002	  8.86479E-001	  8.86245E-001	  0.00000E+000	  0.00000E+000
  1.44000E-002	  8.85089E-001	  8.85667E-001	  0.00000E+000	  0.00000E+000
  1.60000E-002	  8.80830E-001	  8.81628E-001	  0.00000E+000	  0.00000E+000
  1.76000E-002	  8.81020E-001	  8.80034E-001	  0.00000E+000	  0.00000E+000
  1.92000E-002	  8.78696E-001	  8.77938E-001	  0.00000E+000	  0.00000E+000
  2.08000E-002	  8.76114E-001	  8.77257E-001	  0.00000E+000	  0.00000E+000
  2.24000E-002	  8.74493E-001	  8.74933E-001	  0.00000E+000	  0.00000E+000
  2.40000E-002	  8.70699E-001	  8.70374E-001	  0.00000E+000	  0.00000E+000
  2.56000E-002	  8.69765E-001	  8.69073E-001	  0.00000E+000	  0.00000E+000
  2.88000E-002	  8.66390E-001	  8.64919E-001	  0.00000E+000	  0.00000E+000
  3.20000E-002	  8.62077E-001	  8.62721E-001	  0.00000E+000	  0.00000E+000
  3.52000E-002	  8.57323E-001	  8.57533E-001	  0.00000E+000	  0.00000E+000
  3.84000E-002	  8.54000E-001	  8.54184E-001	  0.00000E+000	  0.00000E+000
  4.16000E-002	  8.50620E-001	  8.50164E-001	  0.00000E+000	  0.00000E+000
  4.48000E-002	  8.45263E-001	  8.45279E-001	  0.00000E+000	  0.00000E+000
  4.80000E-002	  8.41377E-001	  8.41355E-001	  0.00000E+000	  0.00000E+000
  5.12000E-002	  8.36957E-001	  8.36556E-001	  0.00000E+000	  0.00000E+000
  5.76000E-002	  8.30073E-001	  8.30582E-001	  0.00000E+000	  0.00000E+000
  6.40000E-002	  8.21614E-001	  8.21051E-001	  0.00000E+000	  0.00000E+000
  7.04000E-002	  8.13455E-001	  8.13512E-001	  0.00000E+000	  0.00000E+000
  7.68000E-002	  8.06894E-001	  8.06662E-001	  0.00000E+000	  0.00000E+000
  8.32000E-002	  7.99208E-001	  7.99123E-001	  0.00000E+000	  0.00000E+000
  8.96000E-002	  7.91851E-001	  7.91602E-001	  0.00000E+000	  0.00000E+000
  9.60000E-002	  7.84524E-001	  7.84367E-001	  0.00000E+000	  0.00000E+000
  1.02400E-001	  7.77265E-001	  7.76753E-001	  0.00000E+000	  0.00000E+000
  1.15200E-001	  7.62873E-001	  7.62501E-001	  0.00000E+000	  0.00000E+000
  1.28000E-001	  7.49059E-001	  7.49000E-001	  0.00000E+000	  0.00000E+000
  1.40800E-001	  7.35992E-001	  7.36216E-001	  0.00000E+000	  0.00000E+000
  1.53600E-001	  7.22487E-001	  7.22320E-001	  0.00000E+000	  0.00000E+000
  1.66400E-001	  7.09436E-001	  7.09466E-001	  0.00000E+000	  0.00000E+000
  1.79200E-001	  6.96061E-001	  6.96181E-001	  0.00000E+000	  0.00000E+000
  1.92000E-001	  6.83777E-001	  6.83425E-001	  0.00000E+000	  0.00000E+000
  2.04800E-001	  6.71937E-001	  6.71221E-001	  0.00000E+000	  0.00000E+000
  2.30400E-001	  6.48167E-001	  6.47184E-001	  0.00000E+000	  0.00000E+000
  2.56000E-001	  6.24884E-001	  6.23775E-001	  0.00000E+000	  0.00000E+000
  2.81600E-001	  6.03055E-001	  6.02218E-001	  0.00000E+000	  0.00000E+000
  3.07200E-001	  5.82204E-001	  5.81540E-001	  0.00000E+000	  0.00000E+000
  3.32800E-001	  5.62059E-001	  5.61695E-001	  0.00000E+000	  0.00000E+000
  3.58400E-001	  5.42687E-001	  5.42058E-001	  0.00000E+000	  0.00000E+000
  3.84000E-001	  5.23516E-001	  5.23306E-001	  0.00000E+000	  0.00000E+000
  4.09600E-001	  5.05881E-001	  5.05567E-001	  0.00000E+000	  0.00000E+000
  4.60800E-001	  4.71358E-001	  4.70576E-001	  0.00000E+000	  0.00000E+000
  5.12000E-001	  4.38394E-001	  4.37804E-001	  0.00000E+000	  0.00000E+000
  5.63200E-001	  4.08100E-001	  4.07273E-001	  0.00000E+000	  0.00000E+000
  6.14400E-001	  3.79959E-001	  3.79178E-001	  0.00000E+000	  0.00000E+000
  6.65600E-001	  3.53920E-001	  3.53138E-001	  0.00000E+000	  0.00000E+000
  7.16800E-001	  3.28724E-001	  3.28100E-001	  0.00000E+000	  0.00000E+000
  7.68000E-001	  3.06285E-001	  3.05801E-001	  0.00000E+000	  0.00000E+000
  8.19200E-001	  2.86174E-001	  2.85797E-001	  0.00000E+000	  0.00000E+000
  9.21600E-001	  2.49613E-001	  2.49835E-001	  0.00000E+000	  0.00000E+000
  1.02400E+000	  2.18610E-001	  2.18874E-001	  0.00000E+000	  0.00000E+000
  1.12640E+000	  1.91838E-001	  1.92002E-001	  0.00000E+000	  0.00000E+000
  1.22880E+000	  1.68471E-001	  1.68842E-001	  0.00000E+000	  0.00000E+000
  1.33120E+000	  1.47200E-001	  1.47889E-001	  0.00000E+000	  0.00000E+000
  1.43360E+000	  1.28256E-001	  1.28974E-001	  0.00000E+000	  0.00000E+000
  1.53600E+000	  1.11428E-001	  1.12046E-001	  0.00000E+000	  0.00000E+000
  1.63840E+000	  9.84041E-002	  9.87547E-002	  0.00000E+000	  0.00000E+000
  1.84320E+000	  7.63155E-002	  7.68679E-002	  0.00000E+000	  0.00000E+000
  2.04800E+000	  5.94399E-002	  6.02050E-002	  0.00000E+000	  0.00000E+000
  2.25280E+000	  4.69089E-002	  4.75997E-002	  0.00000E+000	  0.00000E+000
  2.45760E+000	  3.80524E-002	  3.89625E-002	  0.00000E+000	  0.00000E+000
  2.66240E+000	  2.85513E-002	  2.95191E-002	  0.00000E+000	  0.00000E+000
  2.86720E+000	  2.17557E-002	  2.25948E-002	  0.00000E+000	  0.00000E+000
  3.07200E+000	  1.75454E-002	  1.80625E-002	  0.00000E+000	  0.00000E+000
  3.27680E+000	  1.06120E-002	  1.13003E-002	  0.00000E+000	  0.00000E+000
  3.68640E+000	 -1.73914E-003	 -1.42346E-003	  0.00000E+000	  0.00000E+000
  4.09600E+000	 -1.00664E-002	 -9.82153E-003	  0.00000E+000	  0.00000E+000
  4.50560E+000	 -1.43512E-002	 -1.43030E-002	  0.00000E+000	  0.00000E+000
  4.91520E+000	 -1.08869E-002	 -1.09158E-002	  0.00000E+000	  0.00000E+000
  5.32480E+000	 -6.57868E-003	 -6.69999E-003	  0.00000E+000	  0.00000E+000
  5.73440E+000	 -6.73936E-003	 -6.66384E-003	  0.00000E+000	  0.00000E+000
  6.14400E+000	 -3.00812E-003	 -3.59267E-003	  0.00000E+000	  0.00000E+000
  6.55360E+000	 -6.47260E-004	 -1.66741E-003	  0.00000E+000	  0.00000E+000
  7.37280E+000	 -4.03118E-003	 -4.18626E-003	  0.00000E+000	  0.00000E+000
  8.19200E+000	 -3.06194E-003	 -2.99680E-003	  0.00000E+000	  0.00000E+000
  9.01120E+000	 -3.98120E-003	 -4.21947E-003	  0.00000E+000	  0.00000E+000
  9.83040E+000	 -1.10182E-002	 -1.10713E-002	  0.00000E+000	  0.00000E+000
  1.06496E+001	 -1.45250E-002	 -1.44775E-002	  0.00000E+000	  0.00000E+000
  1.14688E+001	 -1.22243E-002	 -1.18185E-002	  0.00000E+000	  0.00000E+000
  1.22880E+001	 -1.73305E-002	 -1.78558E-002	  0.00000E+000	  0.00000E+000
  1.31072E+001	 -8.56938E-003	 -8.71637E-003	  0.00000E+000	  0.00000E+000
  1.47456E+001	 -9.80864E-004	 -7.83365E-004	  0.00000E+000	  0.00000E+000
  1.63840E+001	 -7.28981E-003	 -7.18166E-003	  0.00000E+000	  0.00000E+000
  1.80224E+001	  2.64268E-003	  2.46648E-003	  0.00000E+000	  0.00000E+000
  1.96608E+001	  6.45749E-003	  6.54798E-003	  0.00000E+000	  0.00000E+000
  2.12992E+001	  8.91224E-003	  8.87811E-003	  0.00000E+000	  0.00000E+000
  2.29376E+001	  6.08222E-003	  6.31582E-003	  0.00000E+000	  0.00000E+000
  2.45760E+001	 -9.29961E-004	 -9.93079E-004	  0.00000E+000	  0.00000E+000
  2.62144E+001	  2.10197E-003	  1.95411E-003	  0.00000E+000	  0.00000E+000
  2.94912E+001	  1.73439E-003	  2.29475E-003	  0.00000E+000	  0.00000E+000
  3.27680E+001	 -1.48225E-003	 -9.83485E-004	  0.00000E+000	  0.00000E+000
  3.60448E+001	  4.47801E-003	  4.77032E-003	  0.00000E+000	  0.00000E+000
  3.93216E+001	  5.36310E-003	  5.28949E-003	  0.00000E+000	  0.00000E+000
  4.25984E+001	  1.14359E-002	  1.13320E-002	  0.00000E+000	  0.00000E+000
  4.58752E+001	  3.53718E-006	  2.34167E-004	  0.00000E+000	  0.00000E+000
  4.91520E+001	 -5.21314E-003	 -5.42660E-003	  0.00000E+000	  0.00000E+000
  5.24288E+001	  2.40496E-003	  2.55561E-003	  0.00000E+000	  0.00000E+000
  5.89824E+001	 -2.29639E-003	 -2.35269E-003	  0.00000E+000	  0.00000E+000
  6.55360E+001	 -6.39895E-003	 -6.69726E-003	  0.00000E+000	  0.00000E+000
  7.20896E+001	 -1.77453E-003	 -2.02584E-003	  0.00000E+000	  0.00000E+000
  7.86432E+001	  4.10473E-003	  4.12641E-003	  0.00000E+000	  0.00000E+000
  8.51968E+001	  9.44135E-004	  1.10122E-003	  0.00000E+000	  0.00000E+000
  9.17504E+001	 -1.08564E-003	 -8.97123E-004	  0.00000E+000	  0.00000E+000
  9.83040E+001	 -2.30184E-003	 -2.06675E-003	  0.00000E+000	  0.00000E+000
  1.04858E+002	  3.31591E-003	  3.34428E-003	  0.00000E+000	  0.00000E+000
  1.17965E+002	  8.89103E-004	  6.50708E-004	  0.00000E+000	  0.00000E+000
  1.31072E+002	  3.35373E-003	  3.51281E-003	  0.00000E+000	  0.00000E+000
  1.44179E+002	 -2.34315E-003	 -2.42558E-003	  0.00000E+000	  0.00000E+000
  1.57286E+002	 -7.74178E-004	 -7.53202E-004	  0.00000E+000	  0.00000E+000
  1.70394E+002	 -1.48462E-003	 -1.45678E-003	  0.00000E+000	  0.00000E+000
  1.83501E+002	 -6.38280E-004	 -3.03966E-004	  0.00000E+000	  0.00000E+000
  1.96608E+002	  4.85433E-003	  4.96558E-003	  0.00000E+000	  0.00000E+000
  2.09715E+002	  5.79139E-004	  4.12534E-004	  0.00000E+000	  0.00000E+000
  2.35930E+002	  4.60552E-004	  3.72992E-004	  0.00000E+000	  0.00000E+000
  2.62144E+002	 -3.73471E-003	 -3.75012E-003	  0.00000E+000	  0.00000E+000
  2.88358E+002	 -2.27152E-003	 -2.26685E-003	  0.00000E+000	  0.00000E+000
  3.14573E+002	  1.53200E-003	  1.59667E-003	  0.00000E+000	  0.00000E+000
  3.40787E+002	  1.76677E-003	  1.82967E-003	  0.00000E+000	  0.00000E+000
  3.67002E+002	  3.91981E-004	  3.41714E-004	  0.00000E+000	  0.00000E+000
  3.93216E+002	 -1.02897E-003	 -1.03824E-003	  0.00000E+000	  0.00000E+000
  4.19430E+002	 -4.90993E-003	 -4.89938E-003	  0.00000E+000	  0.00000E+000
  4.71859E+002	 -8.88720E-005	 -1.82969E-004	  0.00000E+000	  0.00000E+000
  5.24288E+002	  3.21351E-003	  3.28671E-003	  0.00000E+000	  0.00000E+000
  5.76717E+002	 -1.48254E-004	 -2.96960E-004	  0.00000E+000	  0.00000E+000
  6.29146E+002	 -2.23316E-003	 -2.13457E-003	  0.00000E+000	  0.00000E+000
  6.81574E+002	 -1.07664E-004	 -1.93537E-004	  0.00000E+000	  0.00000E+000
  7.34003E+002	 -8.02113E-004	 -8.09046E-004	  0.00000E+000	  0.00000E+000
  7.86432E+002	 -1.13998E-003	 -1.05578E-003	  0.00000E+000	  0.00000E+000
  8.38861E+002	  4.57857E-004	  5.26607E-004	  0.00000E+000	  0.00000E+000
  9.43718E+002	 -2.31020E-003	 -2.33284E-003	  0.00000E+000	  0.00000E+000
  1.04858E+003	 -2.94880E-003	 -2.98775E-003	  0.00000E+000	  0.00000E+000
  1.15343E+003	  2.46895E-005	  1.54950E-005	  0.00000E+000	  0.00000E+000
  1.25829E+003	  8.94456E-005	  8.82658E-005	  0.00000E+000	  0.00000E+000
  1.36315E+003	  8.69353E-004	  9.66356E-004	  0.00000E+000	  0.00000E+000
  1.46801E+003	  2.69037E-003	  2.61792E-003	  0.00000E+000	  0.00000E+000
  1.57286E+003	  1.75962E-003	  1.88830E-003	  0.00000E+000	  0.00000E+000
  1.67772E+003	 -4.32477E-005	 -6.34141E-005	  0.00000E+000	  0.00000E+000
  1.88744E+003	 -1.06342E-004	 -1.39016E-004	  0.00000E+000	  0.00000E+000
  2.09715E+003	  1.54706E-005	  1.25641E-004	  0.00000E+000	  0.00000E+000
  2.30687E+003	 -1.15970E-003	 -1.16900E-003	  0.00000E+000	  0.00000E+000
  2.51658E+003	 -9.45395E-004	 -8.94708E-004	  0.00000E+000	  0.00000E+000
  2.72630E+003	  1.05342E-004	  1.24745E-004	  0.00000E+000	  0.00000E+000
  2.93601E+003	  1.64280E-003	  1.57285E-003	  0.00000E+000	  0.00000E+000
  3.14573E+003	  1.53436E-003	  1.51931E-003	  0.00000E+000	  0.00000E+000

"Count Rate"
       0.03906	     277.06766	     278.93387	     277.06766	     278.93387
       0.07813	     289.72208	     301.50729	     289.72208	     301.50729
       0.11719	     285.35056	     290.74466	     285.35056	     290.74466
       0.15625	     260.73196	     265.23132	     260.73196	     265.23132
       0.19531	     357.46790	     362.32513	     357.46790	     362.32513
       0.23438	     288.44385	     288.54611	     288.44385	     288.54611
       0.27344	     247.41289	     249.27908	     247.41289	     249.27908
       0.31250	     246.33917	     257.56198	     246.33917	     257.56198
       0.35156	     170.94957	     177.16173	     170.94957	     177.16173
       0.39063	     296.41995	     299.28317	     296.41995	     299.28317
       0.42969	     251.32425	     261.11545	     251.32425	     261.11545
       0.46875	     258.55899	     260.93649	     258.55899	     260.93649
       0.50781	     226.73123	     233.25017	     226.73123	     233.25017
       0.54688	     244.14063	     251.65659	     244.14063	     251.65659
       0.58594	     274.15332	     278.90829	     274.15332	     278.90829
       0.62500	     280.26321	     283.99564	     280.26321	     283.99564
       0.66406	     279.95645	     289.82434	     279.95645	     289.82434
       0.70313	     322.41901	     337.80884	     322.41901	     337.80884
       0.74219	     196.76968	     201.95926	     196.76968	     201.95926
       0.78125	     269.47501	     277.04208	     269.47501	     277.04208
       0.82031	     276.68420	     278.72934	     276.68420	     278.72934
       0.85938	     248.46103	     255.23561	     248.46103	     255.23561
       0.89844	     269.24493	     270.82993	     269.24493	     270.82993
       0.93750	     372.57651	     372.67874	     372.57651	     372.67874
       0.97656	     287.49796	     298.79745	     287.49796	     298.79745
       1.01563	     340.16077	     346.88422	     340.16077	     346.88422
       1.05469	     323.28821	     329.29587	     323.28821	     329.29587
       1.09375	     364.65152	     373.42014	     364.65152	     373.42014
       1.13281	     216.07085	     216.40318	     216.07085	     216.40318
       1.17188	     348.87823	     350.28427	     348.87823	     350.28427
       1.21094	     293.91464	     308.35855	     293.91464	     308.35855
       1.25000	     385.81888	     393.20703	     385.81888	     393.20703
       1.28906	     225.12067	     230.18243	     225.12067	     230.18243
       1.32813	     259.81165	     266.99527	     259.81165	     266.99527
       1.36719	     328.83569	     340.79987	     328.83569	     340.79987
       1.40625	     228.92978	     232.27872	     228.92978	     232.27872
       1.44531	     266.45840	     272.15927	     266.45840	     272.15927
       1.48438	     368.84409	     378.14954	     368.84409	     378.14954
       1.52344	     249.45804	     261.01318	     249.45804	     261.01318
       1.56250	     347.34436	     350.25873	     347.34436	     350.25873
       1.60156	     405.58023	     408.29004	     405.58023	     408.29004
       1.64063	     287.77917	     291.48602	     287.77917	     291.48602
       1.67969	     317.76630	     328.86127	     317.76630	     328.86127
       1.71875	     340.28857	     351.40912	     340.28857	     351.40912
       1.75781	     442.69983	     450.49698	     442.69983	     450.49698
       1.79688	     298.00494	     304.70285	     298.00494	     304.70285
       1.83594	     313.70154	     322.26563	     313.70154	     322.26563
       1.87500	     245.49554	     245.77675	     245.49554	     245.77675
       1.91406	     210.08876	     216.86334	     210.08876	     216.86334
       1.95313	     314.18726	     322.39346	     314.18726	     322.39346
       1.99219	     249.79037	     252.24457	     249.79037	     252.24457
       2.03125	     287.72803	     294.01691	     287.72803	     294.01691
       2.07031	     182.55583	     191.91243	     182.55583	     191.91243
       2.10938	     310.86389	     318.17532	     310.86389	     318.17532
       2.14844	     308.05179	     312.32104	     308.05179	     312.32104
       2.18750	     295.06503	     306.08331	     295.06503	     306.08331
       2.22656	     200.62991	     199.78629	     200.62991	     199.78629
       2.26563	     239.89693	     239.41121	     239.89693	     239.41121
       2.30469	     313.08798	     311.37518	     313.08798	     311.37518
       2.34375	     323.39047	     339.64948	     323.39047	     339.64948
       2.38281	     246.08353	     248.12869	     246.08353	     248.12869
       2.42188	     290.10553	     299.61551	     290.10553	     299.61551
       2.46094	     278.70380	     284.83926	     278.70380	     284.83926
       2.50000	     376.89688	     383.95267	     376.89688	     383.95267
       2.53906	     324.28522	     333.56512	     324.28522	     333.56512
       2.57813	     350.07977	     353.14749	     350.07977	     353.14749
       2.61719	     245.52110	     253.98294	     245.52110	     253.98294
       2.65625	     282.48734	     290.05441	     282.48734	     290.05441
       2.69531	     222.76874	     233.42912	     222.76874	     233.42912
       2.73438	     358.84839	     362.98981	     358.84839	     362.98981
       2.77344	     245.85345	     251.01747	     245.85345	     251.01747
       2.81250	     257.86874	     264.23428	     257.86874	     264.23428
       2.85156	     364.26804	     373.88028	     364.26804	     373.88028
       2.89063	     315.15872	     318.84000	     315.15872	     318.84000
       2.92969	     370.91479	     386.79034	     370.91479	     386.79034
       2.96875	     320.93628	     331.03424	     320.93628	     331.03424
       3.00781	     361.96725	     377.63824	     361.96725	     377.63824
       3.04688	     333.10495	     334.99673	     333.10495	     334.99673
       3.08594	     293.35223	     300.40802	     293.35223	     300.40802
       3.12500	     322.75134	     325.99805	     322.75134	     325.99805
       3.16406	     312.57669	     320.09265	     312.57669	     320.09265
       3.20313	     235.42314	     242.93910	     235.42314	     242.93910
       3.24219	     269.47501	     280.85120	     269.47501	     280.85120
       3.28125	     269.37274	     278.21805	     269.37274	     278.21805
       3.32031	     286.04077	     300.94485	     286.04077	     300.94485
       3.35938	     362.96426	     374.57053	     362.96426	     374.57053
       3.39844	     314.82639	     320.01596	     314.82639	     320.01596
       3.43750	     200.70660	     207.04659	     200.70660	     207.04659
       3.47656	     299.53882	     305.13745	     299.53882	     305.13745
       3.51563	     252.73029	     260.19510	     252.73029	     260.19510
       3.55469	     201.21790	     208.52933	     201.21790	     208.52933
       3.59375	     186.51833	     189.81615	     186.51833	     189.81615
       3.63281	     396.88831	     406.27045	     396.88831	     406.27045
       3.67188	     222.69205	     232.35541	     222.69205	     232.35541
       3.71094	     310.25034	     318.81442	     310.25034	     318.81442
       3.75000	     332.87488	     337.98776	     332.87488	     337.98776
       3.78906	     239.02774	     246.44144	     239.02774	     246.44144
       3.82813	     300.84262	     317.40839	     300.84262	     317.40839
       3.86719	     360.28000	     367.28464	     360.28000	     367.28464
       3.90625	     310.07138	     315.59329	     310.07138	     315.59329
       3.94531	     210.80457	     214.43472	     210.80457	     214.43472
       3.98438	     236.36903	     242.09547	     236.36903	     242.09547
       4.02344	     257.15295	     262.57260	     257.15295	     262.57260
       4.06250	     225.70865	     236.24121	     225.70865	     236.24121
       4.10156	     288.29047	     293.14771	     288.29047	     293.14771
       4.14063	     285.73401	     286.32199	     285.73401	     286.32199
       4.17969	     363.04095	     364.24249	     363.04095	     364.24249
       4.21875	     324.41306	     338.98480	     324.41306	     338.98480
       4.25781	     273.66757	     280.21210	     273.66757	     280.21210
       4.29688	     235.16750	     242.45337	     235.16750	     242.45337
       4.33594	     345.63156	     352.22717	     345.63156	     352.22717
       4.37500	     384.71960	     393.66718	     384.71960	     393.66718
       4.41406	     319.09564	     326.86725	     319.09564	     326.86725
       4.45313	     410.66754	     415.65262	     410.66754	     415.65262
       4.49219	     271.39233	     273.00290	     271.39233	     273.00290
       4.53125	     325.92136	     328.73343	     325.92136	     328.73343
       4.57031	     310.60825	     323.28821	     310.60825	     323.28821
       4.60938	     257.84317	     261.98462	     257.84317	     261.98462
       4.64844	     398.54999	     404.55765	     398.54999	     404.55765
       4.68750	     321.06409	     327.53192	     321.06409	     327.53192
       4.72656	     247.43845	     252.42352	     247.43845	     252.42352
       4.76563	     231.40953	     239.51346	     231.40953	     239.51346
       4.80469	     245.29103	     248.71667	     245.29103	     248.71667
       4.84375	     253.93182	     254.26416	     253.93182	     254.26416
       4.88281	     333.69293	     337.65543	     333.69293	     337.65543
       4.92188	     246.13466	     253.62505	     246.13466	     253.62505
       4.96094	     321.88217	     327.30182	     321.88217	     327.30182
       5.00000	     261.44778	     269.42389	     261.44778	     269.42389
       5.03906	     296.08762	     304.44720	     296.08762	     304.44720
       5.07813	     264.64334	     271.54575	     264.64334	     271.54575
       5.11719	     293.91464	     300.33133	     293.91464	     300.33133
       5.15625	     228.29066	     228.95534	     228.29066	     228.95534
       5.19531	     327.42966	     337.98776	     327.42966	     337.98776
       5.23438	     285.04376	     290.13110	     285.04376	     290.13110
       5.27344	     392.15887	     406.27045	     392.15887	     406.27045
       5.31250	     278.16693	     285.27386	     278.16693	     285.27386
       5.35156	     304.60059	     316.05347	     304.60059	     316.05347
       5.39063	     229.79897	     233.88928	     229.79897	     233.88928
       5.42969	     189.04921	     197.61331	     189.04921	     197.61331
       5.46875	     332.10794	     335.94263	     332.10794	     335.94263
       5.50781	     309.61121	     316.74371	     309.61121	     316.74371
       5.54688	     296.65002	     302.96445	     296.65002	     302.96445
       5.58594	     274.89468	     275.09918	     274.89468	     275.09918
       5.62500	     366.59442	     380.19470	     366.59442	     380.19470
       5.66406	     260.34851	     271.31564	     260.34851	     271.31564
       5.70313	     288.44385	     292.91763	     288.44385	     292.91763
       5.74219	     264.66888	     270.39532	     264.66888	     270.39532
       5.78125	     303.50131	     310.83832	     303.50131	     310.83832
       5.82031	     295.78085	     305.18857	     295.78085	     305.18857
       5.85938	     337.50204	     350.64218	     337.50204	     350.64218
       5.89844	     285.55505	     285.06934	     285.55505	     285.06934
       5.93750	     262.24026	     264.00421	     262.24026	     264.00421
       5.97656	     336.47946	     339.24045	     336.47946	     339.24045
       6.01563	     366.56885	     365.87860	     366.56885	     365.87860
       6.05469	     356.49646	     366.69666	     356.49646	     366.69666
       6.09375	     246.59482	     247.64296	     246.59482	     247.64296
       6.13281	     255.69577	     260.22067	     255.69577	     260.22067
       6.17188	     302.04413	     308.56308	     302.04413	     308.56308
       6.21094	     350.79556	     360.84241	     350.79556	     360.84241
       6.25000	     341.05551	     341.10663	     341.05551	     341.10663
       6.28906	     325.12885	     339.18930	     325.12885	     339.18930
       6.32813	     287.93256	     292.81537	     287.93256	     292.81537
       6.36719	     262.31696	     265.35913	     262.31696	     265.35913
       6.40625	     232.32985	     236.54799	     232.32985	     236.54799
       6.44531	     242.91353	     245.80232	     242.91353	     245.80232
       6.48438	     238.87434	     235.49985	     238.87434	     235.49985
       6.52344	     376.59012	     391.64758	     376.59012	     391.64758
       6.56250	     354.22122	     367.94934	     354.22122	     367.94934
       6.60156	     250.27611	     249.43248	     250.27611	     249.43248
       6.64063	     286.27087	     291.71609	     286.27087	     291.71609
       6.67969	     327.17401	     338.09003	     327.17401	     338.09003
       6.71875	     335.25238	     342.15479	     335.25238	     342.15479
       6.75781	     269.90961	     276.30072	     269.90961	     276.30072
       6.79688	     284.96707	     293.09659	     284.96707	     293.09659
       6.83594	     335.25238	     347.13986	     335.25238	     347.13986
       6.87500	     308.99768	     322.39346	     308.99768	     322.39346
       6.91406	     309.99469	     318.48209	     309.99469	     318.48209
       6.95313	     211.85271	     214.61368	     211.85271	     214.61368
       6.99219	     301.43060	     308.38412	     301.43060	     308.38412
       7.03125	     240.84282	     251.19643	     240.84282	     251.19643
       7.07031	     286.32199	     296.41995	     286.32199	     296.41995
       7.10938	     218.03931	     219.98221	     218.03931	     219.98221
       7.14844	     266.25388	     273.69315	     266.25388	     273.69315
       7.18750	     311.29846	     320.29718	     311.29846	     320.29718
       7.22656	     315.46548	     328.14545	     315.46548	     328.14545
       7.26563	     253.24158	     258.22665	     253.24158	     258.22665
       7.30469	     340.44196	     354.75806	     340.44196	     354.75806
       7.34375	     307.33600	     316.53918	     307.33600	     316.53918
       7.38281	     237.18709	     244.57523	     237.18709	     244.57523
       7.42188	     244.65192	     249.50917	     244.65192	     249.50917
       7.46094	     352.22717	     354.98816	     352.22717	     354.98816
       7.50000	     266.40729	     273.46307	     266.40729	     273.46307
       7.53906	     355.65283	     358.49048	     355.65283	     358.49048
       7.57813	     259.88834	     265.53809	     259.88834	     265.53809
       7.61719	     284.12344	     294.57932	     284.12344	     294.57932
       7.65625	     368.25610	     381.65189	     368.25610	     381.65189
       7.69531	     265.76816	     275.78943	     265.76816	     275.78943
       7.73438	     434.41693	     443.51788	     434.41693	     443.51788
       7.77344	     319.78589	     331.31546	     319.78589	     331.31546
       7.81250	     294.52820	     303.45020	     294.52820	     303.45020
       7.85156	     341.49011	     347.08871	     341.49011	     347.08871
       7.89063	     210.01207	     217.57915	     210.01207	     217.57915
       7.92969	     258.89133	     268.47800	     258.89133	     268.47800
       7.96875	     293.96576	     302.78552	     293.96576	     302.78552
       8.00781	     269.73065	     274.48566	     269.73065	     274.48566
       8.04688	     441.77951	     460.67163	     441.77951	     460.67163
       8.08594	     295.57632	     305.00961	     295.57632	     305.00961
       8.12500	     304.49832	     314.95419	     304.49832	     314.95419
       8.16406	     375.84875	     387.30164	     375.84875	     387.30164
       8.20313	     305.98108	     317.51065	     305.98108	     317.51065
       8.24219	     297.82599	     299.48770	     297.82599	     299.48770
       8.28125	     190.42969	     191.37558	     190.42969	     191.37558
       8.32031	     351.94598	     351.94598	     351.94598	     351.94598
       8.35938	     329.85828	     332.59369	     329.85828	     332.59369
       8.39844	     252.39795	     262.70044	     252.39795	     262.70044
       8.43750	     210.06320	     211.06021	     210.06320	     211.06021
       8.47656	     249.71368	     256.05368	     249.71368	     256.05368
       8.51563	     279.82861	     283.12643	     279.82861	     283.12643
       8.55469	     276.09622	     278.39700	     276.09622	     278.39700
       8.59375	     288.67392	     293.42892	     288.67392	     293.42892
       8.63281	     241.55862	     245.49554	     241.55862	     245.49554
       8.67188	     404.14862	     413.32626	     404.14862	     413.32626
       8.71094	     259.50488	     265.79373	     259.50488	     265.79373
       8.75000	     307.56607	     310.37814	     307.56607	     310.37814
       8.78906	     325.20554	     327.14844	     325.20554	     327.14844
       8.82813	     272.67056	     277.75790	     272.67056	     277.75790
       8.86719	     302.40204	     318.50766	     302.40204	     318.50766
       8.90625	     255.95142	     260.19510	     255.95142	     260.19510
       8.94531	     291.33264	     295.42294	     291.33264	     295.42294
       8.98438	     213.18207	     218.03931	     213.18207	     218.03931
       9.02344	     177.03391	     182.96487	     177.03391	     182.96487
       9.06250	     332.21021	     339.87955	     332.21021	     339.87955
       9.10156	     268.47800	     275.58493	     268.47800	     275.58493
       9.14063	     274.48566	     280.41660	     274.48566	     280.41660
       9.17969	     415.09021	     423.80768	     415.09021	     423.80768
       9.21875	     244.62636	     254.36641	     244.62636	     254.36641
       9.25781	     289.79877	     294.34924	     289.79877	     294.34924
       9.29688	     250.71069	     253.65060	     250.71069	     253.65060
       9.33594	     276.81201	     282.46176	     276.81201	     282.46176
       9.37500	     325.87021	     338.03891	     325.87021	     338.03891
       9.41406	     221.84842	     221.10704	     221.84842	     221.10704
       9.45313	     285.06934	     291.35818	     285.06934	     291.35818
       9.49219	     364.88159	     374.08481	     364.88159	     374.08481
       9.53125	     301.55841	     307.00363	     301.55841	     307.00363
       9.57031	     205.18039	     213.20763	     205.18039	     213.20763
       9.60938	     247.82191	     250.94078	     247.82191	     250.94078
       9.64844	     281.15796	     288.92957	     281.15796	     288.92957
       9.68750	     320.32272	     328.04321	     320.32272	     328.04321
       9.72656	     302.93890	     306.85025	     302.93890	     306.85025
       9.76563	     307.69388	     310.09695	     307.69388	     310.09695
       9.80469	     243.29700	     250.94078	     243.29700	     250.94078
       9.84375	     361.50708	     368.92078	     361.50708	     368.92078
       9.88281	     378.07285	     386.50912	     378.07285	     386.50912

Monitor Diode	 152121.60

"Cumulant 1.Order"
FluctuationFreq. [1/ms]	 6.9529E-001
DiffCoefficient [µm²/s]	 1.9875E+000
Hydrodyn. Radius [nm]	 1.2264E+002

"Cumulant 2.Order"
FluctuationFreq. [1/ms]	 7.2725E-001
DiffCoefficient [µm²/s]	 2.0788E+000
Hydrodyn. Radius [nm]	 1.1725E+002
Expansion Parameter µ2	 6.5000E-002

"Cumulant 3.Order"
FluctuationFreq. [1/ms]	 7.3565E-001
DiffCoefficient [µm²/s]	 2.1028E+000
Hydrodyn. Radius [nm]	 1.1591E+002
Expansion Parameter µ2	 1.0961E-001
Expansion Parameter µ3	 7.1280E-002

"StandardDeviation"
  2.50000E-005	  1.77143E-002
  5.00000E-005	  1.77147E-002
  7.50000E-005	  1.77144E-002
  1.00000E-004	  1.77151E-002
  1.25000E-004	  1.77159E-002
  1.50000E-004	  1.77159E-002
  1.75000E-004	  1.77161E-002
  2.00000E-004	  1.77163E-002
  2.25000E-004	  1.77144E-002
  2.50000E-004	  1.77152E-002
  2.75000E-004	  1.76930E-002
  3.00000E-004	  1.77030E-002
  3.25000E-004	  1.77150E-002
  3.50000E-004	  1.77016E-002
  3.75000E-004	  1.76954E-002
  4.00000E-004	  1.64195E-002
  4.50000E-004	  1.64250E-002
  5.00000E-004	  1.64195E-002
  5.50000E-004	  1.64184E-002
  6.00000E-004	  1.64207E-002
  6.50000E-004	  1.64268E-002
  7.00000E-004	  1.64275E-002
  7.50000E-004	  1.64207E-002
  8.00000E-004	  1.57457E-002
  9.00000E-004	  1.57455E-002
  1.00000E-003	  1.57461E-002
  1.10000E-003	  1.57456E-002
  1.20000E-003	  1.57467E-002
  1.30000E-003	  1.57456E-002
  1.40000E-003	  1.57466E-002
  1.50000E-003	  1.57458E-002
  1.60000E-003	  1.53974E-002
  1.80000E-003	  1.53967E-002
  2.00000E-003	  1.53968E-002
  2.20000E-003	  1.53969E-002
  2.40000E-003	  1.53969E-002
  2.60000E-003	  1.53969E-002
  2.80000E-003	  1.53969E-002
  3.00000E-003	  1.53968E-002
  3.20000E-003	  1.52193E-002
  3.60000E-003	  1.52177E-002
  4.00000E-003	  1.52176E-002
  4.40000E-003	  1.52174E-002
  4.80000E-003	  1.52173E-002
  5.20000E-003	  1.52174E-002
  5.60000E-003	  1.52172E-002
  6.00000E-003	  1.52173E-002
  6.40000E-003	  1.51274E-002
  7.20000E-003	  1.51244E-002
  8.00000E-003	  1.51244E-002
  8.80000E-003	  1.51242E-002
  9.60000E-003	  1.51245E-002
  1.04000E-002	  1.51238E-002
  1.12000E-002	  1.51238E-002
  1.20000E-002	  1.51238E-002
  1.28000E-002	  1.50773E-002
  1.44000E-002	  1.50715E-002
  1.60000E-002	  1.50717E-002
  1.76000E-002	  1.50709E-002
  1.92000E-002	  1.50704E-002
  2.08000E-002	  1.50703E-002
  2.24000E-002	  1.50695E-002
  2.40000E-002	  1.50697E-002
  2.56000E-002	  1.50425E-002
  2.88000E-002	  1.50306E-002
  3.20000E-002	  1.50302E-002
  3.52000E-002	  1.50291E-002
  3.84000E-002	  1.50276E-002
  4.16000E-002	  1.50259E-002
  4.48000E-002	  1.50251E-002
  4.80000E-002	  1.50231E-002
  5.12000E-002	  1.50038E-002
  5.76000E-002	  1.49823E-002
  6.40000E-002	  1.49798E-002
  7.04000E-002	  1.49766E-002
  7.68000E-002	  1.49713E-002
  8.32000E-002	  1.49670E-002
  8.96000E-002	  1.49619E-002
  9.60000E-002	  1.49558E-002
  1.02400E-001	  1.49404E-002
  1.15200E-001	  1.48891E-002
  1.28000E-001	  1.48726E-002
  1.40800E-001	  1.48554E-002
  1.53600E-001	  1.48345E-002
  1.66400E-001	  1.48155E-002
  1.79200E-001	  1.47933E-002
  1.92000E-001	  1.47709E-002
  2.04800E-001	  1.47065E-002
  2.30400E-001	  1.46022E-002
  2.56000E-001	  1.45503E-002
  2.81600E-001	  1.44912E-002
  3.07200E-001	  1.44357E-002
  3.32800E-001	  1.43685E-002
  3.58400E-001	  1.42964E-002
  3.84000E-001	  1.42239E-002
  4.09600E-001	  1.41313E-002
  4.60800E-001	  1.39053E-002
  5.12000E-001	  1.37503E-002
  5.63200E-001	  1.35786E-002
  6.14400E-001	  1.33963E-002
  6.65600E-001	  1.32151E-002
  7.16800E-001	  1.30322E-002
  7.68000E-001	  1.28453E-002
  8.19200E-001	  1.26396E-002
  9.21600E-001	  1.22242E-002
  1.02400E+000	  1.18637E-002
  1.12640E+000	  1.15206E-002
  1.22880E+000	  1.11823E-002
  1.33120E+000	  1.08534E-002
  1.43360E+000	  1.05384E-002
  1.53600E+000	  1.02355E-002
  1.63840E+000	  9.85593E-003
  1.84320E+000	  7.53023E-003
  2.04800E+000	  7.53023E-003
  2.25280E+000	  7.53023E-003
  2.45760E+000	  7.53023E-003
  2.66240E+000	  7.53023E-003
  2.86720E+000	  7.53023E-003
  3.07200E+000	  7.53023E-003
  3.27680E+000	  7.52590E-003
  3.68640E+000	  7.52590E-003
  4.09600E+000	  7.52590E-003
  4.50560E+000	  7.52590E-003
  4.91520E+000	  7.52590E-003
  5.32480E+000	  7.52590E-003
  5.73440E+000	  7.52590E-003
  6.14400E+000	  7.52590E-003
  6.55360E+000	  7.24281E-003
  7.37280E+000	  7.24281E-003
  8.19200E+000	  7.24281E-003
  9.01120E+000	  7.24281E-003
  9.83040E+000	  7.24281E-003
  1.06496E+001	  7.24281E-003
  1.14688E+001	  7.24281E-003
  1.22880E+001	  7.24281E-003
  1.31072E+001	  6.64937E-003
  1.47456E+001	  6.64937E-003
  1.63840E+001	  6.64937E-003
  1.80224E+001	  6.64937E-003
  1.96608E+001	  6.64937E-003
  2.12992E+001	  6.64937E-003
  2.29376E+001	  6.64937E-003
  2.45760E+001	  6.64937E-003
  2.62144E+001	  5.70340E-003
  2.94912E+001	  5.70340E-003
  3.27680E+001	  5.70340E-003
  3.60448E+001	  5.70340E-003
  3.93216E+001	  5.70340E-003
  4.25984E+001	  5.70340E-003
  4.58752E+001	  5.70340E-003
  4.91520E+001	  5.70340E-003
  5.24288E+001	  4.56820E-003
  5.89824E+001	  4.56820E-003
  6.55360E+001	  4.56820E-003
  7.20896E+001	  4.56820E-003
  7.86432E+001	  4.56820E-003
  8.51968E+001	  4.56820E-003
  9.17504E+001	  4.56820E-003
  9.83040E+001	  4.56820E-003
  1.04858E+002	  3.42964E-003
  1.17965E+002	  3.42964E-003
  1.31072E+002	  3.42964E-003
  1.44179E+002	  3.42964E-003
  1.57286E+002	  3.42964E-003
  1.70394E+002	  3.42964E-003
  1.83501E+002	  3.42964E-003
  1.96608E+002	  3.42964E-003
  2.09715E+002	  2.49577E-003
  2.35930E+002	  2.49577E-003
  2.62144E+002	  2.49577E-003
  2.88358E+002	  2.49577E-003
  3.14573E+002	  2.49577E-003
  3.40787E+002	  2.49577E-003
  3.67002E+002	  2.49577E-003
  3.93216E+002	  2.49577E-003
  4.19430E+002	  1.78975E-003
  4.71859E+002	  1.78975E-003
  5.24288E+002	  1.78975E-003
  5.76717E+002	  1.78975E-003
  6.29146E+002	  1.78975E-003
  6.81574E+002	  1.78975E-003
  7.34003E+002	  1.78975E-003
  7.86432E+002	  1.78975E-003
  8.38861E+002	  1.27437E-003
  9.43718E+002	  1.27437E-003
  1.04858E+003	  1.27437E-003
  1.15343E+003	  1.27437E-003
  1.25829E+003	  1.27437E-003
  1.36315E+003	  1.27437E-003
  1.46801E+003	  1.27437E-003
  1.57286E+003	  1.27437E-003
  1.67772E+003	  9.04239E-004
  1.88744E+003	  9.04239E-004
  2.09715E+003	  9.04239E-004
  2.30687E+003	  9.04239E-004
  2.51658E+003	  9.04239E-004
  2.72630E+003	  9.04239E-004
  2.93601E+003	  9.04239E-004
  3.14573E+003	  9.04239E-004
