ALV-7004/USB
Date :	"08.06.2022"
Time :	"14:20:07"
Samplename : 	"Samplename needed."
SampMemo(0) : 	""
SampMemo(1) : 	""
SampMemo(2) : 	""
SampMemo(3) : 	""
SampMemo(4) : 	""
SampMemo(5) : 	""
SampMemo(6) : 	""
SampMemo(7) : 	""
SampMemo(8) : 	""
SampMemo(9) : 	""
Temperature [K] :	     297.92646
Viscosity [cp]  :	       0.89466
Refractive Index:	       1.33200
Wavelength [nm] :	     632.80000
Angle [°]       :	      40.00000
Duration [s]    :	        10
FloatDur [ms]   :	         9961
Stop TP [ms]   :	  16777216
Runs            :	         1
Mode            :	"C-CH0/1+1/0"
MeanCR0 [kHz]   :	     399.08469
MeanCR1 [kHz]   :	     397.42028
MeanCR2 [kHz]   :	       0.00000
MeanCR3 [kHz]   :	       0.00000

"Correlation"
  2.50000E-005	  9.27132E-001	  9.29980E-001	  0.00000E+000	  0.00000E+000
  5.00000E-005	  9.29461E-001	  9.32132E-001	  0.00000E+000	  0.00000E+000
  7.50000E-005	  9.18954E-001	  9.21195E-001	  0.00000E+000	  0.00000E+000
  1.00000E-004	  9.17587E-001	  9.08714E-001	  0.00000E+000	  0.00000E+000
  1.25000E-004	  9.30917E-001	  9.33221E-001	  0.00000E+000	  0.00000E+000
  1.50000E-004	  9.20334E-001	  9.19094E-001	  0.00000E+000	  0.00000E+000
  1.75000E-004	  9.16600E-001	  9.09549E-001	  0.00000E+000	  0.00000E+000
  2.00000E-004	  9.15764E-001	  9.11119E-001	  0.00000E+000	  0.00000E+000
  2.25000E-004	  9.22879E-001	  9.19094E-001	  0.00000E+000	  0.00000E+000
  2.50000E-004	  9.20537E-001	  9.17473E-001	  0.00000E+000	  0.00000E+000
  2.75000E-004	  9.19575E-001	  9.22815E-001	  0.00000E+000	  0.00000E+000
  3.00000E-004	  9.26271E-001	  9.24157E-001	  0.00000E+000	  0.00000E+000
  3.25000E-004	  9.17385E-001	  9.30917E-001	  0.00000E+000	  0.00000E+000
  3.50000E-004	  9.12321E-001	  9.08714E-001	  0.00000E+000	  0.00000E+000
  3.75000E-004	  9.24562E-001	  9.21119E-001	  0.00000E+000	  0.00000E+000
  4.00000E-004	  9.22329E-001	  9.23993E-001	  0.00000E+000	  0.00000E+000
  4.50000E-004	  9.13417E-001	  9.11955E-001	  0.00000E+000	  0.00000E+000
  5.00000E-004	  9.26196E-001	  9.26651E-001	  0.00000E+000	  0.00000E+000
  5.50000E-004	  9.21810E-001	  9.18069E-001	  0.00000E+000	  0.00000E+000
  6.00000E-004	  9.15531E-001	  9.18829E-001	  0.00000E+000	  0.00000E+000
  6.50000E-004	  9.25810E-001	  9.23057E-001	  0.00000E+000	  0.00000E+000
  7.00000E-004	  9.19696E-001	  9.20753E-001	  0.00000E+000	  0.00000E+000
  7.50000E-004	  9.16310E-001	  9.21361E-001	  0.00000E+000	  0.00000E+000
  8.00000E-004	  9.20658E-001	  9.22803E-001	  0.00000E+000	  0.00000E+000
  9.00000E-004	  9.22471E-001	  9.17126E-001	  0.00000E+000	  0.00000E+000
  1.00000E-003	  9.16164E-001	  9.16835E-001	  0.00000E+000	  0.00000E+000
  1.10000E-003	  9.22462E-001	  9.24526E-001	  0.00000E+000	  0.00000E+000
  1.20000E-003	  9.23354E-001	  9.22817E-001	  0.00000E+000	  0.00000E+000
  1.30000E-003	  9.16458E-001	  9.11519E-001	  0.00000E+000	  0.00000E+000
  1.40000E-003	  9.18455E-001	  9.17646E-001	  0.00000E+000	  0.00000E+000
  1.50000E-003	  9.18693E-001	  9.17525E-001	  0.00000E+000	  0.00000E+000
  1.60000E-003	  9.20476E-001	  9.20348E-001	  0.00000E+000	  0.00000E+000
  1.80000E-003	  9.21122E-001	  9.23994E-001	  0.00000E+000	  0.00000E+000
  2.00000E-003	  9.22299E-001	  9.21634E-001	  0.00000E+000	  0.00000E+000
  2.20000E-003	  9.20559E-001	  9.20681E-001	  0.00000E+000	  0.00000E+000
  2.40000E-003	  9.21483E-001	  9.22362E-001	  0.00000E+000	  0.00000E+000
  2.60000E-003	  9.21396E-001	  9.24064E-001	  0.00000E+000	  0.00000E+000
  2.80000E-003	  9.20081E-001	  9.22001E-001	  0.00000E+000	  0.00000E+000
  3.00000E-003	  9.22287E-001	  9.21555E-001	  0.00000E+000	  0.00000E+000
  3.20000E-003	  9.19732E-001	  9.20926E-001	  0.00000E+000	  0.00000E+000
  3.60000E-003	  9.17388E-001	  9.14825E-001	  0.00000E+000	  0.00000E+000
  4.00000E-003	  9.18996E-001	  9.19371E-001	  0.00000E+000	  0.00000E+000
  4.40000E-003	  9.20487E-001	  9.21499E-001	  0.00000E+000	  0.00000E+000
  4.80000E-003	  9.20742E-001	  9.21391E-001	  0.00000E+000	  0.00000E+000
  5.20000E-003	  9.18457E-001	  9.18136E-001	  0.00000E+000	  0.00000E+000
  5.60000E-003	  9.19427E-001	  9.21607E-001	  0.00000E+000	  0.00000E+000
  6.00000E-003	  9.19613E-001	  9.19499E-001	  0.00000E+000	  0.00000E+000
  6.40000E-003	  9.19094E-001	  9.18822E-001	  0.00000E+000	  0.00000E+000
  7.20000E-003	  9.20196E-001	  9.19926E-001	  0.00000E+000	  0.00000E+000
  8.00000E-003	  9.18293E-001	  9.17890E-001	  0.00000E+000	  0.00000E+000
  8.80000E-003	  9.17974E-001	  9.17857E-001	  0.00000E+000	  0.00000E+000
  9.60000E-003	  9.18468E-001	  9.18753E-001	  0.00000E+000	  0.00000E+000
  1.04000E-002	  9.16728E-001	  9.16720E-001	  0.00000E+000	  0.00000E+000
  1.12000E-002	  9.18195E-001	  9.19245E-001	  0.00000E+000	  0.00000E+000
  1.20000E-002	  9.18822E-001	  9.18976E-001	  0.00000E+000	  0.00000E+000
  1.28000E-002	  9.17049E-001	  9.17073E-001	  0.00000E+000	  0.00000E+000
  1.44000E-002	  9.17014E-001	  9.17161E-001	  0.00000E+000	  0.00000E+000
  1.60000E-002	  9.16268E-001	  9.15686E-001	  0.00000E+000	  0.00000E+000
  1.76000E-002	  9.15568E-001	  9.15514E-001	  0.00000E+000	  0.00000E+000
  1.92000E-002	  9.15287E-001	  9.14706E-001	  0.00000E+000	  0.00000E+000
  2.08000E-002	  9.15607E-001	  9.15583E-001	  0.00000E+000	  0.00000E+000
  2.24000E-002	  9.15271E-001	  9.14612E-001	  0.00000E+000	  0.00000E+000
  2.40000E-002	  9.15232E-001	  9.16097E-001	  0.00000E+000	  0.00000E+000
  2.56000E-002	  9.14037E-001	  9.13507E-001	  0.00000E+000	  0.00000E+000
  2.88000E-002	  9.13603E-001	  9.14067E-001	  0.00000E+000	  0.00000E+000
  3.20000E-002	  9.12472E-001	  9.12040E-001	  0.00000E+000	  0.00000E+000
  3.52000E-002	  9.12027E-001	  9.12169E-001	  0.00000E+000	  0.00000E+000
  3.84000E-002	  9.10513E-001	  9.10845E-001	  0.00000E+000	  0.00000E+000
  4.16000E-002	  9.10124E-001	  9.10656E-001	  0.00000E+000	  0.00000E+000
  4.48000E-002	  9.08167E-001	  9.08387E-001	  0.00000E+000	  0.00000E+000
  4.80000E-002	  9.08612E-001	  9.09129E-001	  0.00000E+000	  0.00000E+000
  5.12000E-002	  9.07934E-001	  9.08292E-001	  0.00000E+000	  0.00000E+000
  5.76000E-002	  9.06064E-001	  9.06200E-001	  0.00000E+000	  0.00000E+000
  6.40000E-002	  9.03990E-001	  9.03959E-001	  0.00000E+000	  0.00000E+000
  7.04000E-002	  9.02600E-001	  9.02734E-001	  0.00000E+000	  0.00000E+000
  7.68000E-002	  9.00792E-001	  9.00836E-001	  0.00000E+000	  0.00000E+000
  8.32000E-002	  8.99613E-001	  8.99293E-001	  0.00000E+000	  0.00000E+000
  8.96000E-002	  8.97001E-001	  8.96839E-001	  0.00000E+000	  0.00000E+000
  9.60000E-002	  8.95169E-001	  8.94926E-001	  0.00000E+000	  0.00000E+000
  1.02400E-001	  8.93711E-001	  8.93840E-001	  0.00000E+000	  0.00000E+000
  1.15200E-001	  8.90484E-001	  8.90167E-001	  0.00000E+000	  0.00000E+000
  1.28000E-001	  8.87036E-001	  8.86930E-001	  0.00000E+000	  0.00000E+000
  1.40800E-001	  8.83543E-001	  8.83228E-001	  0.00000E+000	  0.00000E+000
  1.53600E-001	  8.80137E-001	  8.80140E-001	  0.00000E+000	  0.00000E+000
  1.66400E-001	  8.77161E-001	  8.76809E-001	  0.00000E+000	  0.00000E+000
  1.79200E-001	  8.73645E-001	  8.73338E-001	  0.00000E+000	  0.00000E+000
  1.92000E-001	  8.70410E-001	  8.70381E-001	  0.00000E+000	  0.00000E+000
  2.04800E-001	  8.67303E-001	  8.67439E-001	  0.00000E+000	  0.00000E+000
  2.30400E-001	  8.60906E-001	  8.60929E-001	  0.00000E+000	  0.00000E+000
  2.56000E-001	  8.54466E-001	  8.54366E-001	  0.00000E+000	  0.00000E+000
  2.81600E-001	  8.48117E-001	  8.48109E-001	  0.00000E+000	  0.00000E+000
  3.07200E-001	  8.42238E-001	  8.42054E-001	  0.00000E+000	  0.00000E+000
  3.32800E-001	  8.35738E-001	  8.35561E-001	  0.00000E+000	  0.00000E+000
  3.58400E-001	  8.29571E-001	  8.29668E-001	  0.00000E+000	  0.00000E+000
  3.84000E-001	  8.23134E-001	  8.23502E-001	  0.00000E+000	  0.00000E+000
  4.09600E-001	  8.17168E-001	  8.17453E-001	  0.00000E+000	  0.00000E+000
  4.60800E-001	  8.05163E-001	  8.05310E-001	  0.00000E+000	  0.00000E+000
  5.12000E-001	  7.93393E-001	  7.93575E-001	  0.00000E+000	  0.00000E+000
  5.63200E-001	  7.81460E-001	  7.81543E-001	  0.00000E+000	  0.00000E+000
  6.14400E-001	  7.69998E-001	  7.69671E-001	  0.00000E+000	  0.00000E+000
  6.65600E-001	  7.58656E-001	  7.58365E-001	  0.00000E+000	  0.00000E+000
  7.16800E-001	  7.47278E-001	  7.47141E-001	  0.00000E+000	  0.00000E+000
  7.68000E-001	  7.36369E-001	  7.36281E-001	  0.00000E+000	  0.00000E+000
  8.19200E-001	  7.25380E-001	  7.25083E-001	  0.00000E+000	  0.00000E+000
  9.21600E-001	  7.03865E-001	  7.03615E-001	  0.00000E+000	  0.00000E+000
  1.02400E+000	  6.82694E-001	  6.82479E-001	  0.00000E+000	  0.00000E+000
  1.12640E+000	  6.62727E-001	  6.62622E-001	  0.00000E+000	  0.00000E+000
  1.22880E+000	  6.43127E-001	  6.43104E-001	  0.00000E+000	  0.00000E+000
  1.33120E+000	  6.24244E-001	  6.24108E-001	  0.00000E+000	  0.00000E+000
  1.43360E+000	  6.05830E-001	  6.05507E-001	  0.00000E+000	  0.00000E+000
  1.53600E+000	  5.88006E-001	  5.87588E-001	  0.00000E+000	  0.00000E+000
  1.63840E+000	  5.71081E-001	  5.70592E-001	  0.00000E+000	  0.00000E+000
  1.84320E+000	  5.39174E-001	  5.38777E-001	  0.00000E+000	  0.00000E+000
  2.04800E+000	  5.08943E-001	  5.08776E-001	  0.00000E+000	  0.00000E+000
  2.25280E+000	  4.80497E-001	  4.80473E-001	  0.00000E+000	  0.00000E+000
  2.45760E+000	  4.54124E-001	  4.54116E-001	  0.00000E+000	  0.00000E+000
  2.66240E+000	  4.28759E-001	  4.28521E-001	  0.00000E+000	  0.00000E+000
  2.86720E+000	  4.04867E-001	  4.04891E-001	  0.00000E+000	  0.00000E+000
  3.07200E+000	  3.82286E-001	  3.82265E-001	  0.00000E+000	  0.00000E+000
  3.27680E+000	  3.61626E-001	  3.61571E-001	  0.00000E+000	  0.00000E+000
  3.68640E+000	  3.23435E-001	  3.22899E-001	  0.00000E+000	  0.00000E+000
  4.09600E+000	  2.89206E-001	  2.88487E-001	  0.00000E+000	  0.00000E+000
  4.50560E+000	  2.57292E-001	  2.56521E-001	  0.00000E+000	  0.00000E+000
  4.91520E+000	  2.28004E-001	  2.27375E-001	  0.00000E+000	  0.00000E+000
  5.32480E+000	  2.01315E-001	  2.00496E-001	  0.00000E+000	  0.00000E+000
  5.73440E+000	  1.76611E-001	  1.76021E-001	  0.00000E+000	  0.00000E+000
  6.14400E+000	  1.53925E-001	  1.53447E-001	  0.00000E+000	  0.00000E+000
  6.55360E+000	  1.36367E-001	  1.36059E-001	  0.00000E+000	  0.00000E+000
  7.37280E+000	  1.06518E-001	  1.06329E-001	  0.00000E+000	  0.00000E+000
  8.19200E+000	  8.60068E-002	  8.59834E-002	  0.00000E+000	  0.00000E+000
  9.01120E+000	  7.26068E-002	  7.25187E-002	  0.00000E+000	  0.00000E+000
  9.83040E+000	  6.44533E-002	  6.38750E-002	  0.00000E+000	  0.00000E+000
  1.06496E+001	  5.52384E-002	  5.41790E-002	  0.00000E+000	  0.00000E+000
  1.14688E+001	  4.50407E-002	  4.41672E-002	  0.00000E+000	  0.00000E+000
  1.22880E+001	  3.99168E-002	  3.93575E-002	  0.00000E+000	  0.00000E+000
  1.31072E+001	  3.61340E-002	  3.58571E-002	  0.00000E+000	  0.00000E+000
  1.47456E+001	  2.91447E-002	  2.86825E-002	  0.00000E+000	  0.00000E+000
  1.63840E+001	  2.36138E-002	  2.29629E-002	  0.00000E+000	  0.00000E+000
  1.80224E+001	  2.13436E-002	  2.09779E-002	  0.00000E+000	  0.00000E+000
  1.96608E+001	  9.33725E-003	  8.86304E-003	  0.00000E+000	  0.00000E+000
  2.12992E+001	 -4.07739E-003	 -4.47532E-003	  0.00000E+000	  0.00000E+000
  2.29376E+001	 -1.89140E-002	 -1.93266E-002	  0.00000E+000	  0.00000E+000
  2.45760E+001	 -3.00710E-002	 -2.97890E-002	  0.00000E+000	  0.00000E+000
  2.62144E+001	 -2.56242E-002	 -2.52319E-002	  0.00000E+000	  0.00000E+000
  2.94912E+001	 -1.59354E-002	 -1.56254E-002	  0.00000E+000	  0.00000E+000
  3.27680E+001	 -1.55681E-002	 -1.50644E-002	  0.00000E+000	  0.00000E+000
  3.60448E+001	 -1.41362E-002	 -1.37577E-002	  0.00000E+000	  0.00000E+000
  3.93216E+001	 -9.77274E-004	 -7.79807E-004	  0.00000E+000	  0.00000E+000
  4.25984E+001	  8.76687E-003	  8.42221E-003	  0.00000E+000	  0.00000E+000
  4.58752E+001	  6.30113E-003	  5.54781E-003	  0.00000E+000	  0.00000E+000
  4.91520E+001	  1.57632E-002	  1.50402E-002	  0.00000E+000	  0.00000E+000
  5.24288E+001	  1.32676E-002	  1.26799E-002	  0.00000E+000	  0.00000E+000
  5.89824E+001	  1.06305E-002	  1.01075E-002	  0.00000E+000	  0.00000E+000
  6.55360E+001	 -2.38862E-002	 -2.45888E-002	  0.00000E+000	  0.00000E+000
  7.20896E+001	  3.97812E-003	  4.11510E-003	  0.00000E+000	  0.00000E+000
  7.86432E+001	  1.08211E-002	  1.09938E-002	  0.00000E+000	  0.00000E+000
  8.51968E+001	  2.98069E-003	  3.13963E-003	  0.00000E+000	  0.00000E+000
  9.17504E+001	 -1.36484E-002	 -1.36132E-002	  0.00000E+000	  0.00000E+000
  9.83040E+001	 -1.88629E-002	 -1.93208E-002	  0.00000E+000	  0.00000E+000
  1.04858E+002	 -1.15917E-002	 -1.17901E-002	  0.00000E+000	  0.00000E+000
  1.17965E+002	 -2.08908E-002	 -2.09670E-002	  0.00000E+000	  0.00000E+000
  1.31072E+002	 -1.91179E-003	 -1.92259E-003	  0.00000E+000	  0.00000E+000
  1.44179E+002	 -1.49336E-002	 -1.50430E-002	  0.00000E+000	  0.00000E+000
  1.57286E+002	 -1.52022E-002	 -1.51367E-002	  0.00000E+000	  0.00000E+000
  1.70394E+002	 -8.27538E-004	 -8.51615E-004	  0.00000E+000	  0.00000E+000
  1.83501E+002	  1.97021E-002	  1.92816E-002	  0.00000E+000	  0.00000E+000
  1.96608E+002	  4.60942E-002	  4.58010E-002	  0.00000E+000	  0.00000E+000
  2.09715E+002	  1.82399E-002	  1.82250E-002	  0.00000E+000	  0.00000E+000
  2.35930E+002	 -1.13095E-002	 -1.12155E-002	  0.00000E+000	  0.00000E+000
  2.62144E+002	  1.74730E-003	  1.64403E-003	  0.00000E+000	  0.00000E+000
  2.88358E+002	  3.68359E-003	  3.80959E-003	  0.00000E+000	  0.00000E+000
  3.14573E+002	 -4.33329E-003	 -4.50899E-003	  0.00000E+000	  0.00000E+000
  3.40787E+002	  1.32850E-002	  1.31646E-002	  0.00000E+000	  0.00000E+000
  3.67002E+002	 -8.25271E-003	 -7.80749E-003	  0.00000E+000	  0.00000E+000
  3.93216E+002	  3.48836E-003	  3.86401E-003	  0.00000E+000	  0.00000E+000
  4.19430E+002	  1.35670E-003	  1.51133E-003	  0.00000E+000	  0.00000E+000
  4.71859E+002	 -2.39585E-003	 -2.36587E-003	  0.00000E+000	  0.00000E+000
  5.24288E+002	  8.24195E-003	  8.13440E-003	  0.00000E+000	  0.00000E+000
  5.76717E+002	  1.42093E-002	  1.44281E-002	  0.00000E+000	  0.00000E+000
  6.29146E+002	  6.31170E-004	  3.34108E-004	  0.00000E+000	  0.00000E+000
  6.81574E+002	  1.43691E-003	  1.02881E-003	  0.00000E+000	  0.00000E+000
  7.34003E+002	 -3.24061E-003	 -3.25635E-003	  0.00000E+000	  0.00000E+000
  7.86432E+002	  5.31015E-003	  5.13037E-003	  0.00000E+000	  0.00000E+000
  8.38861E+002	  3.05559E-003	  3.24907E-003	  0.00000E+000	  0.00000E+000
  9.43718E+002	 -6.64718E-003	 -6.51159E-003	  0.00000E+000	  0.00000E+000
  1.04858E+003	 -9.37811E-003	 -9.32995E-003	  0.00000E+000	  0.00000E+000
  1.15343E+003	 -1.85850E-003	 -1.84959E-003	  0.00000E+000	  0.00000E+000
  1.25829E+003	 -2.06450E-002	 -2.06745E-002	  0.00000E+000	  0.00000E+000
  1.36315E+003	  9.33382E-003	  9.19559E-003	  0.00000E+000	  0.00000E+000
  1.46801E+003	 -1.00481E-002	 -1.00098E-002	  0.00000E+000	  0.00000E+000
  1.57286E+003	 -8.28771E-003	 -7.99493E-003	  0.00000E+000	  0.00000E+000
  1.67772E+003	 -1.03705E-002	 -1.00838E-002	  0.00000E+000	  0.00000E+000
  1.88744E+003	 -4.45362E-004	 -4.03103E-004	  0.00000E+000	  0.00000E+000
  2.09715E+003	  2.45851E-003	  2.37404E-003	  0.00000E+000	  0.00000E+000
  2.30687E+003	  5.20587E-003	  5.33391E-003	  0.00000E+000	  0.00000E+000
  2.51658E+003	  4.52143E-003	  4.40705E-003	  0.00000E+000	  0.00000E+000
  2.72630E+003	  7.60762E-003	  7.59946E-003	  0.00000E+000	  0.00000E+000
  2.93601E+003	  3.15971E-003	  3.16273E-003	  0.00000E+000	  0.00000E+000
  3.14573E+003	 -2.39073E-003	 -2.26518E-003	  0.00000E+000	  0.00000E+000

"Count Rate"
       0.03906	     575.81396	     576.98993	     575.81396	     576.98993
       0.07813	     235.78105	     237.11040	     235.78105	     237.11040
       0.11719	     629.55048	     626.22711	     629.55048	     626.22711
       0.15625	     181.84003	     178.92569	     181.84003	     178.92569
       0.19531	     306.16000	     305.29083	     306.16000	     305.29083
       0.23438	     466.70486	     464.14841	     466.70486	     464.14841
       0.27344	     157.96281	     156.37782	     157.96281	     156.37782
       0.31250	     316.20685	     313.49701	     316.20685	     313.49701
       0.35156	     400.77411	     400.10944	     400.77411	     400.10944
       0.39063	     397.22064	     402.00119	     397.22064	     402.00119
       0.42969	     280.85120	     283.15201	     280.85120	     283.15201
       0.46875	     438.63507	     438.09821	     438.63507	     438.09821
       0.50781	     513.00208	     505.12823	     513.00208	     505.12823
       0.54688	     462.69122	     452.56769	     462.69122	     452.56769
       0.58594	     344.58340	     341.64349	     344.58340	     341.64349
       0.62500	     238.87434	     240.10144	     238.87434	     240.10144
       0.66406	     342.20590	     334.89447	     342.20590	     334.89447
       0.70313	     501.93268	     495.08142	     501.93268	     495.08142
       0.74219	     308.40970	     309.17664	     308.40970	     309.17664
       0.78125	     462.69122	     463.30478	     462.69122	     463.30478
       0.82031	     266.86743	     259.58157	     266.86743	     259.58157
       0.85938	     591.53613	     580.79907	     591.53613	     580.79907
       0.89844	     426.46640	     424.14001	     426.46640	     424.14001
       0.93750	     320.29718	     314.03387	     320.29718	     314.03387
       0.97656	     356.47089	     358.66943	     356.47089	     358.66943
       1.01563	     325.64014	     323.51828	     325.64014	     323.51828
       1.05469	     302.22308	     299.30875	     302.22308	     299.30875
       1.09375	     316.00235	     317.53619	     316.00235	     317.53619
       1.13281	     270.65097	     269.47501	     270.65097	     269.47501
       1.17188	     295.60190	     294.78384	     295.60190	     294.78384
       1.21094	     645.93732	     652.09833	     645.93732	     652.09833
       1.25000	     564.64233	     556.43610	     564.64233	     556.43610
       1.28906	     416.54736	     413.65860	     416.54736	     413.65860
       1.32813	     340.13519	     335.48245	     340.13519	     335.48245
       1.36719	     375.89987	     362.73419	     375.89987	     362.73419
       1.40625	     460.28818	     452.77222	     460.28818	     452.77222
       1.44531	     309.81573	     312.39774	     309.81573	     312.39774
       1.48438	     379.14658	     378.78867	     379.14658	     378.78867
       1.52344	     468.57104	     468.26428	     468.57104	     468.26428
       1.56250	     310.07138	     308.63977	     310.07138	     308.63977
       1.60156	     368.40948	     360.99579	     368.40948	     360.99579
       1.64063	     252.98593	     250.09715	     252.98593	     250.09715
       1.67969	     358.97620	     355.65283	     358.97620	     355.65283
       1.71875	     598.61749	     594.19482	     598.61749	     594.19482
       1.75781	     446.02319	     443.36450	     446.02319	     443.36450
       1.79688	     661.30157	     656.64880	     661.30157	     656.64880
       1.83594	     392.26114	     391.16187	     392.26114	     391.16187
       1.87500	     268.93817	     263.79971	     268.93817	     263.79971
       1.91406	     254.03407	     256.36044	     254.03407	     256.36044
       1.95313	     370.94037	     363.75674	     370.94037	     363.75674
       1.99219	     536.31689	     534.96198	     536.31689	     534.96198
       2.03125	     182.45358	     175.47447	     182.45358	     175.47447
       2.07031	     381.77969	     377.68939	     381.77969	     377.68939
       2.10938	     754.43286	     740.57697	     754.43286	     740.57697
       2.14844	     551.47662	     550.01941	     551.47662	     550.01941
       2.18750	     245.36772	     237.00815	     245.36772	     237.00815
       2.22656	     558.63464	     562.98065	     558.63464	     562.98065
       2.26563	     401.61774	     408.05997	     401.61774	     408.05997
       2.30469	     705.88599	     701.71899	     705.88599	     701.71899
       2.34375	     374.05923	     367.43805	     374.05923	     367.43805
       2.38281	     367.05457	     367.41248	     367.05457	     367.41248
       2.42188	     151.21381	     147.63478	     151.21381	     147.63478
       2.46094	     446.40668	     457.34827	     446.40668	     457.34827
       2.50000	     526.29559	     521.13159	     526.29559	     521.13159
       2.53906	     368.43506	     359.05289	     368.43506	     359.05289
       2.57813	     273.76984	     276.83759	     273.76984	     276.83759
       2.61719	     205.33377	     198.12459	     205.33377	     198.12459
       2.65625	     391.05960	     391.74985	     391.05960	     391.74985
       2.69531	     234.65622	     230.77042	     234.65622	     230.77042
       2.73438	     500.52664	     495.69495	     500.52664	     495.69495
       2.77344	     189.40712	     188.61461	     189.40712	     188.61461
       2.81250	     286.52652	     284.27682	     286.52652	     284.27682
       2.85156	     366.74780	     368.30722	     366.74780	     368.30722
       2.89063	     413.27512	     413.45407	     413.27512	     413.45407
       2.92969	     800.03992	     802.69861	     800.03992	     802.69861
       2.96875	     268.70807	     263.92752	     268.70807	     263.92752
       3.00781	     517.45032	     513.30890	     517.45032	     513.30890
       3.04688	     335.68698	     327.42966	     335.68698	     327.42966
       3.08594	     489.30383	     487.20755	     489.30383	     487.20755
       3.12500	     275.27814	     273.48865	     275.27814	     273.48865
       3.16406	     190.17404	     189.89284	     190.17404	     189.89284
       3.20313	     201.14120	     200.68105	     201.14120	     200.68105
       3.24219	     203.39087	     202.01039	     203.39087	     202.01039
       3.28125	     408.69910	     409.90060	     408.69910	     409.90060
       3.32031	     405.24789	     401.64328	     405.24789	     401.64328
       3.35938	     409.90060	     406.27045	     409.90060	     406.27045
       3.39844	     238.31194	     239.51346	     238.31194	     239.51346
       3.43750	     431.96274	     431.88605	     431.96274	     431.88605
       3.47656	     190.40413	     186.41608	     190.40413	     186.41608
       3.51563	     236.82919	     233.81259	     236.82919	     233.81259
       3.55469	     444.79611	     440.96143	     444.79611	     440.96143
       3.59375	     641.66803	     625.81805	     641.66803	     625.81805
       3.63281	     698.13995	     686.96826	     698.13995	     686.96826
       3.67188	     282.74298	     279.03613	     282.74298	     279.03613
       3.71094	     236.85475	     242.24886	     236.85475	     242.24886
       3.75000	     437.53580	     435.92523	     437.53580	     435.92523
       3.78906	     333.02826	     333.64182	     333.02826	     333.64182
       3.82813	     518.06384	     518.83081	     518.06384	     518.83081
       3.86719	     239.79468	     243.65491	     239.79468	     243.65491
       3.90625	     376.23221	     373.49683	     376.23221	     373.49683
       3.94531	     346.55188	     348.34137	     346.55188	     348.34137
       3.98438	     334.38318	     336.63287	     334.38318	     336.63287
       4.02344	     356.39420	     353.37759	     356.39420	     353.37759
       4.06250	     733.03546	     721.27576	     733.03546	     721.27576
       4.10156	     576.14630	     572.28607	     576.14630	     572.28607
       4.14063	     304.11487	     301.35391	     304.11487	     301.35391
       4.17969	     225.68309	     224.99284	     225.68309	     224.99284
       4.21875	     448.63077	     446.35553	     448.63077	     446.35553
       4.25781	     586.03979	     582.23065	     586.03979	     582.23065
       4.29688	     428.17920	     423.85880	     428.17920	     423.85880
       4.33594	     547.94873	     550.24951	     547.94873	     550.24951
       4.37500	     476.18927	     472.58469	     476.18927	     472.58469
       4.41406	     391.82654	     389.16785	     391.82654	     389.16785
       4.45313	     674.92743	     678.53198	     674.92743	     678.53198
       4.49219	     878.95740	     880.61908	     878.95740	     880.61908
       4.53125	     244.49854	     253.01151	     244.49854	     253.01151
       4.57031	     562.59717	     558.43018	     562.59717	     558.43018
       4.60938	     352.55951	     353.27533	     352.55951	     353.27533
       4.64844	     526.52570	     523.10004	     526.52570	     523.10004
       4.68750	     845.82587	     843.75513	     845.82587	     843.75513
       4.72656	     396.93942	     387.12268	     396.93942	     387.12268
       4.76563	     377.53601	     377.28036	     377.53601	     377.28036
       4.80469	     512.77203	     504.64252	     512.77203	     504.64252
       4.84375	     338.78027	     338.19229	     338.78027	     338.19229
       4.88281	     339.67502	     341.41342	     339.67502	     341.41342
       4.92188	     435.18387	     438.20047	     435.18387	     438.20047
       4.96094	     655.98413	     651.81714	     655.98413	     651.81714
       5.00000	     602.42657	     595.34521	     602.42657	     595.34521
       5.03906	     336.42834	     334.81778	     336.42834	     334.81778
       5.07813	     397.24622	     390.65057	     397.24622	     390.65057
       5.11719	     222.64091	     225.73422	     222.64091	     225.73422
       5.15625	     484.90674	     490.04520	     484.90674	     490.04520
       5.19531	     412.78940	     414.65561	     412.78940	     414.65561
       5.23438	     396.07025	     398.44772	     396.07025	     398.44772
       5.27344	     366.44101	     359.64087	     366.44101	     359.64087
       5.31250	     568.34918	     561.83020	     568.34918	     561.83020
       5.35156	     417.39099	     413.76083	     417.39099	     413.76083
       5.39063	     451.23834	     447.73602	     451.23834	     447.73602
       5.42969	     451.69852	     446.48337	     451.69852	     446.48337
       5.46875	     373.06223	     364.06354	     373.06223	     364.06354
       5.50781	     135.10818	     130.58328	     135.10818	     130.58328
       5.54688	     300.33133	     302.40204	     300.33133	     302.40204
       5.58594	     330.54852	     320.93628	     330.54852	     320.93628
       5.62500	     428.97171	     431.50259	     428.97171	     431.50259
       5.66406	     326.66272	     330.54852	     326.66272	     330.54852
       5.70313	     525.75879	     530.02802	     525.75879	     530.02802
       5.74219	     418.61810	     418.97598	     418.61810	     418.97598
       5.78125	     268.19678	     265.87042	     268.19678	     265.87042
       5.82031	     354.68137	     350.51437	     354.68137	     350.51437
       5.85938	     767.03619	     762.28119	     767.03619	     762.28119
       5.89844	     589.82330	     592.43091	     589.82330	     592.43091
       5.93750	     191.47783	     196.33508	     191.47783	     196.33508
       5.97656	     278.09024	     272.74725	     278.09024	     272.74725
       6.01563	     220.87697	     221.56721	     220.87697	     221.56721
       6.05469	     265.02679	     263.03278	     265.02679	     263.03278
       6.09375	     345.98944	     351.89484	     345.98944	     351.89484
       6.13281	     362.96426	     362.81088	     362.96426	     362.81088
       6.17188	     308.66534	     305.06076	     308.66534	     305.06076
       6.21094	     282.20612	     283.22870	     282.20612	     283.22870
       6.25000	     166.98708	     170.18263	     166.98708	     170.18263
       6.28906	     616.99835	     627.86322	     616.99835	     627.86322
       6.32813	     525.96326	     520.51807	     525.96326	     520.51807
       6.36719	     368.25610	     370.60803	     368.25610	     370.60803
       6.40625	     474.22079	     470.74405	     474.22079	     470.74405
       6.44531	     540.53503	     540.53503	     540.53503	     540.53503
       6.48438	     529.23553	     528.82648	     529.23553	     528.82648
       6.52344	     409.08255	     411.33221	     409.08255	     411.33221
       6.56250	     276.76089	     284.71143	     276.76089	     284.71143
       6.60156	     466.24469	     466.57703	     466.24469	     466.57703
       6.64063	     547.15619	     537.87634	     547.15619	     537.87634
       6.67969	     367.84708	     363.34772	     367.84708	     363.34772
       6.71875	     538.82220	     534.22058	     538.82220	     534.22058
       6.75781	     302.35092	     298.82303	     302.35092	     298.82303
       6.79688	     314.31509	     307.43823	     314.31509	     307.43823
       6.83594	     450.85489	     453.13013	     450.85489	     453.13013
       6.87500	     348.67374	     354.11896	     348.67374	     354.11896
       6.91406	     283.50992	     276.96539	     283.50992	     276.96539
       6.95313	     256.94843	     254.03407	     256.94843	     254.03407
       6.99219	     416.13834	     413.81198	     416.13834	     413.81198
       7.03125	     507.48016	     504.71921	     507.48016	     504.71921
       7.07031	     275.32928	     271.46906	     275.32928	     271.46906
       7.10938	     341.51569	     340.18631	     341.51569	     340.18631
       7.14844	     269.39832	     274.20444	     269.39832	     274.20444
       7.18750	     570.88007	     564.33551	     570.88007	     564.33551
       7.22656	    1239.36523	    1230.39209	    1239.36523	    1230.39209
       7.26563	     560.55200	     550.81195	     560.55200	     550.81195
       7.30469	     350.48880	     350.38654	     350.48880	     350.38654
       7.34375	     387.40387	     391.46863	     387.40387	     391.46863
       7.38281	     307.48938	     314.41733	     307.48938	     314.41733
       7.42188	     294.29810	     291.63940	     294.29810	     291.63940
       7.46094	     398.49887	     387.42944	     398.49887	     387.42944
       7.50000	     314.00830	     311.73306	     314.00830	     311.73306
       7.53906	     625.71582	     628.14447	     625.71582	     628.14447
       7.57813	     475.88251	     482.65707	     475.88251	     482.65707
       7.61719	     332.23578	     331.98013	     332.23578	     331.98013
       7.65625	     325.81909	     326.45819	     325.81909	     326.45819
       7.69531	     338.80585	     341.41342	     338.80585	     341.41342
       7.73438	     282.46176	     280.36548	     282.46176	     280.36548
       7.77344	     432.78082	     433.29208	     432.78082	     433.29208
       7.81250	     697.14294	     697.34747	     697.14294	     697.34747
       7.85156	     344.19995	     341.82245	     344.19995	     341.82245
       7.89063	     425.03479	     415.55035	     425.03479	     415.55035
       7.92969	     137.12778	     133.21642	     137.12778	     133.21642
       7.96875	     179.48810	     178.74673	     179.48810	     178.74673
       8.00781	     501.85599	     496.66641	     501.85599	     496.66641
       8.04688	     454.51059	     448.04279	     454.51059	     448.04279
       8.08594	     399.08685	     408.64795	     399.08685	     408.64795
       8.12500	     426.97766	     436.18088	     426.97766	     436.18088
       8.16406	     217.34908	     215.40617	     217.34908	     215.40617
       8.20313	     160.49370	     159.59895	     160.49370	     159.59895
       8.24219	     499.06946	     496.69196	     499.06946	     496.69196
       8.28125	     315.95120	     313.42032	     315.95120	     313.42032
       8.32031	     316.41138	     316.05347	     316.41138	     316.05347
       8.35938	     449.47440	     453.07898	     449.47440	     453.07898
       8.39844	     417.74890	     414.75787	     417.74890	     414.75787
       8.43750	     286.62875	     285.42725	     286.62875	     285.42725
       8.47656	     325.94690	     324.66870	     325.94690	     324.66870
       8.51563	     295.85754	     294.93723	     295.85754	     294.93723
       8.55469	     292.48303	     290.89804	     292.48303	     290.89804
       8.59375	     391.62201	     394.20404	     391.62201	     394.20404
       8.63281	     236.65024	     238.77209	     236.65024	     238.77209
       8.67188	     568.37469	     572.46503	     568.37469	     572.46503
       8.71094	     265.07791	     259.12140	     265.07791	     259.12140
       8.75000	     278.26920	     276.73532	     278.26920	     276.73532
       8.78906	     221.95067	     223.97026	     221.95067	     223.97026
       8.82813	     372.14191	     366.38989	     372.14191	     366.38989
       8.86719	     622.57141	     621.77887	     622.57141	     621.77887
       8.90625	     253.67618	     253.16489	     253.67618	     253.16489
       8.94531	     290.36118	     288.62280	     290.36118	     288.62280
       8.98438	     374.39157	     368.35837	     374.39157	     368.35837
       9.02344	     233.99153	     230.48921	     233.99153	     230.48921
       9.06250	     500.09204	     505.17938	     500.09204	     505.17938
       9.10156	     222.41083	     220.36568	     222.41083	     220.36568
       9.14063	     425.95511	     432.60187	     425.95511	     432.60187
       9.17969	     393.00250	     393.53937	     393.00250	     393.53937
       9.21875	     366.05756	     367.10571	     366.05756	     367.10571
       9.25781	     590.28345	     591.76624	     590.28345	     591.76624
       9.29688	     235.72992	     232.09976	     235.72992	     232.09976
       9.33594	     633.05280	     638.77924	     633.05280	     638.77924
       9.37500	     527.39490	     535.24316	     527.39490	     535.24316
       9.41406	     306.59460	     308.92099	     306.59460	     308.92099
       9.45313	     544.44641	     539.92145	     544.44641	     539.92145
       9.49219	     468.98010	     458.29413	     468.98010	     458.29413
       9.53125	     216.32649	     217.42577	     216.32649	     217.42577
       9.57031	     535.37097	     532.43109	     535.37097	     532.43109
       9.60938	     416.31729	     410.79538	     416.31729	     410.79538
       9.64844	     246.23691	     239.48790	     246.23691	     239.48790
       9.68750	     359.05289	     359.71756	     359.05289	     359.71756
       9.72656	     453.66696	     460.72278	     453.66696	     460.72278
       9.76563	     244.47296	     240.94507	     244.47296	     240.94507
       9.80469	     173.04585	     175.16771	     173.04585	     175.16771
       9.84375	     577.14331	     575.68616	     577.14331	     575.68616
       9.88281	     453.71811	     454.12714	     453.71811	     454.12714

Monitor Diode	  40917.17

"Cumulant 1.Order"
FluctuationFreq. [1/ms]	 1.4382E-001
DiffCoefficient [µm²/s]	 1.7572E+000
Hydrodyn. Radius [nm]	 1.3874E+002

"Cumulant 2.Order"
FluctuationFreq. [1/ms]	 1.4354E-001
DiffCoefficient [µm²/s]	 1.7538E+000
Hydrodyn. Radius [nm]	 1.3901E+002
Expansion Parameter µ2	-1.2779E-004

"Cumulant 3.Order"
FluctuationFreq. [1/ms]	 1.4925E-001
DiffCoefficient [µm²/s]	 1.8235E+000
Hydrodyn. Radius [nm]	 1.3369E+002
Expansion Parameter µ2	 6.7516E-003
Expansion Parameter µ3	 2.5039E-003

"StandardDeviation"
  2.50000E-005	  3.44241E-002
  5.00000E-005	  3.44242E-002
  7.50000E-005	  3.44244E-002
  1.00000E-004	  3.44247E-002
  1.25000E-004	  3.44248E-002
  1.50000E-004	  3.44249E-002
  1.75000E-004	  3.44253E-002
  2.00000E-004	  3.44255E-002
  2.25000E-004	  3.44249E-002
  2.50000E-004	  3.44245E-002
  2.75000E-004	  3.44242E-002
  3.00000E-004	  3.44246E-002
  3.25000E-004	  3.44236E-002
  3.50000E-004	  3.44235E-002
  3.75000E-004	  3.44239E-002
  4.00000E-004	  3.41067E-002
  4.50000E-004	  3.41080E-002
  5.00000E-004	  3.41067E-002
  5.50000E-004	  3.41069E-002
  6.00000E-004	  3.41076E-002
  6.50000E-004	  3.41067E-002
  7.00000E-004	  3.41070E-002
  7.50000E-004	  3.41074E-002
  8.00000E-004	  3.39475E-002
  9.00000E-004	  3.39471E-002
  1.00000E-003	  3.39483E-002
  1.10000E-003	  3.39471E-002
  1.20000E-003	  3.39470E-002
  1.30000E-003	  3.39482E-002
  1.40000E-003	  3.39477E-002
  1.50000E-003	  3.39477E-002
  1.60000E-003	  3.38673E-002
  1.80000E-003	  3.38668E-002
  2.00000E-003	  3.38666E-002
  2.20000E-003	  3.38670E-002
  2.40000E-003	  3.38668E-002
  2.60000E-003	  3.38668E-002
  2.80000E-003	  3.38671E-002
  3.00000E-003	  3.38667E-002
  3.20000E-003	  3.38269E-002
  3.60000E-003	  3.38268E-002
  4.00000E-003	  3.38264E-002
  4.40000E-003	  3.38260E-002
  4.80000E-003	  3.38260E-002
  5.20000E-003	  3.38266E-002
  5.60000E-003	  3.38263E-002
  6.00000E-003	  3.38263E-002
  6.40000E-003	  3.38059E-002
  7.20000E-003	  3.38043E-002
  8.00000E-003	  3.38048E-002
  8.80000E-003	  3.38049E-002
  9.60000E-003	  3.38048E-002
  1.04000E-002	  3.38054E-002
  1.12000E-002	  3.38049E-002
  1.20000E-002	  3.38048E-002
  1.28000E-002	  3.37944E-002
  1.44000E-002	  3.37916E-002
  1.60000E-002	  3.37919E-002
  1.76000E-002	  3.37921E-002
  1.92000E-002	  3.37921E-002
  2.08000E-002	  3.37919E-002
  2.24000E-002	  3.37920E-002
  2.40000E-002	  3.37919E-002
  2.56000E-002	  3.37850E-002
  2.88000E-002	  3.37795E-002
  3.20000E-002	  3.37797E-002
  3.52000E-002	  3.37797E-002
  3.84000E-002	  3.37800E-002
  4.16000E-002	  3.37798E-002
  4.48000E-002	  3.37802E-002
  4.80000E-002	  3.37795E-002
  5.12000E-002	  3.37735E-002
  5.76000E-002	  3.37629E-002
  6.40000E-002	  3.37632E-002
  7.04000E-002	  3.37628E-002
  7.68000E-002	  3.37627E-002
  8.32000E-002	  3.37620E-002
  8.96000E-002	  3.37622E-002
  9.60000E-002	  3.37616E-002
  1.02400E-001	  3.37519E-002
  1.15200E-001	  3.37301E-002
  1.28000E-001	  3.37295E-002
  1.40800E-001	  3.37285E-002
  1.53600E-001	  3.37266E-002
  1.66400E-001	  3.37245E-002
  1.79200E-001	  3.37227E-002
  1.92000E-001	  3.37201E-002
  2.04800E-001	  3.36995E-002
  2.30400E-001	  3.36571E-002
  2.56000E-001	  3.36523E-002
  2.81600E-001	  3.36468E-002
  3.07200E-001	  3.36378E-002
  3.32800E-001	  3.36316E-002
  3.58400E-001	  3.36230E-002
  3.84000E-001	  3.36144E-002
  4.09600E-001	  3.35851E-002
  4.60800E-001	  3.35014E-002
  5.12000E-001	  3.34812E-002
  5.63200E-001	  3.34606E-002
  6.14400E-001	  3.34342E-002
  6.65600E-001	  3.34086E-002
  7.16800E-001	  3.33788E-002
  7.68000E-001	  3.33452E-002
  8.19200E-001	  3.32751E-002
  9.21600E-001	  3.30697E-002
  1.02400E+000	  3.29754E-002
  1.12640E+000	  3.28792E-002
  1.22880E+000	  3.27726E-002
  1.33120E+000	  3.26630E-002
  1.43360E+000	  3.25428E-002
  1.53600E+000	  3.24241E-002
  1.63840E+000	  3.22764E-002
  1.84320E+000	  3.18622E-002
  2.04800E+000	  3.15933E-002
  2.25280E+000	  3.12933E-002
  2.45760E+000	  3.10454E-002
  2.66240E+000	  3.07150E-002
  2.86720E+000	  3.03800E-002
  3.07200E+000	  3.00314E-002
  3.27680E+000	  2.96633E-002
  3.68640E+000	  2.88679E-002
  4.09600E+000	  2.82735E-002
  4.50560E+000	  2.76510E-002
  4.91520E+000	  2.70007E-002
  5.32480E+000	  2.64211E-002
  5.73440E+000	  2.58444E-002
  6.14400E+000	  2.52759E-002
  6.55360E+000	  2.46797E-002
  7.37280E+000	  2.36107E-002
  8.19200E+000	  2.26900E-002
  9.01120E+000	  2.19030E-002
  9.83040E+000	  2.11789E-002
  1.06496E+001	  1.71868E-002
  1.14688E+001	  1.71868E-002
  1.22880E+001	  1.71868E-002
  1.31072E+001	  1.70164E-002
  1.47456E+001	  1.70164E-002
  1.63840E+001	  1.70164E-002
  1.80224E+001	  1.70164E-002
  1.96608E+001	  1.70164E-002
  2.12992E+001	  1.70164E-002
  2.29376E+001	  1.70164E-002
  2.45760E+001	  1.70164E-002
  2.62144E+001	  1.61447E-002
  2.94912E+001	  1.61447E-002
  3.27680E+001	  1.61447E-002
  3.60448E+001	  1.61447E-002
  3.93216E+001	  1.61447E-002
  4.25984E+001	  1.61447E-002
  4.58752E+001	  1.61447E-002
  4.91520E+001	  1.61447E-002
  5.24288E+001	  1.54239E-002
  5.89824E+001	  1.54239E-002
  6.55360E+001	  1.54239E-002
  7.20896E+001	  1.54239E-002
  7.86432E+001	  1.54239E-002
  8.51968E+001	  1.54239E-002
  9.17504E+001	  1.54239E-002
  9.83040E+001	  1.54239E-002
  1.04858E+002	  1.34892E-002
  1.17965E+002	  1.34892E-002
  1.31072E+002	  1.34892E-002
  1.44179E+002	  1.34892E-002
  1.57286E+002	  1.34892E-002
  1.70394E+002	  1.34892E-002
  1.83501E+002	  1.34892E-002
  1.96608E+002	  1.34892E-002
  2.09715E+002	  1.11522E-002
  2.35930E+002	  1.11522E-002
  2.62144E+002	  1.11522E-002
  2.88358E+002	  1.11522E-002
  3.14573E+002	  1.11522E-002
  3.40787E+002	  1.11522E-002
  3.67002E+002	  1.11522E-002
  3.93216E+002	  1.11522E-002
  4.19430E+002	  8.55984E-003
  4.71859E+002	  8.55984E-003
  5.24288E+002	  8.55984E-003
  5.76717E+002	  8.55984E-003
  6.29146E+002	  8.55984E-003
  6.81574E+002	  8.55984E-003
  7.34003E+002	  8.55984E-003
  7.86432E+002	  8.55984E-003
  8.38861E+002	  6.29641E-003
  9.43718E+002	  6.29641E-003
  1.04858E+003	  6.29641E-003
  1.15343E+003	  6.29641E-003
  1.25829E+003	  6.29641E-003
  1.36315E+003	  6.29641E-003
  1.46801E+003	  6.29641E-003
  1.57286E+003	  6.29641E-003
  1.67772E+003	  4.53806E-003
  1.88744E+003	  4.53806E-003
  2.09715E+003	  4.53806E-003
  2.30687E+003	  4.53806E-003
  2.51658E+003	  4.53806E-003
  2.72630E+003	  4.53806E-003
  2.93601E+003	  4.53806E-003
  3.14573E+003	  4.53806E-003
