ALV-7004/USB
Date :	"08.06.2022"
Time :	"14:35:47"
Samplename : 	"Samplename needed."
SampMemo(0) : 	""
SampMemo(1) : 	""
SampMemo(2) : 	""
SampMemo(3) : 	""
SampMemo(4) : 	""
SampMemo(5) : 	""
SampMemo(6) : 	""
SampMemo(7) : 	""
SampMemo(8) : 	""
SampMemo(9) : 	""
Temperature [K] :	     297.92851
Viscosity [cp]  :	       0.89468
Refractive Index:	       1.33200
Wavelength [nm] :	     632.80000
Angle [°]       :	     110.00000
Duration [s]    :	        10
FloatDur [ms]   :	         9961
Stop TP [ms]   :	  16777216
Runs            :	         1
Mode            :	"C-CH0/1+1/0"
MeanCR0 [kHz]   :	     319.52247
MeanCR1 [kHz]   :	     328.12300
MeanCR2 [kHz]   :	       0.00000
MeanCR3 [kHz]   :	       0.00000

"Correlation"
  2.50000E-005	  9.19402E-001	  9.24151E-001	  0.00000E+000	  0.00000E+000
  5.00000E-005	  9.19268E-001	  9.16415E-001	  0.00000E+000	  0.00000E+000
  7.50000E-005	  9.23366E-001	  9.15189E-001	  0.00000E+000	  0.00000E+000
  1.00000E-004	  9.18885E-001	  9.16070E-001	  0.00000E+000	  0.00000E+000
  1.25000E-004	  9.16779E-001	  9.28709E-001	  0.00000E+000	  0.00000E+000
  1.50000E-004	  9.08544E-001	  9.23807E-001	  0.00000E+000	  0.00000E+000
  1.75000E-004	  9.16932E-001	  9.29513E-001	  0.00000E+000	  0.00000E+000
  2.00000E-004	  9.11398E-001	  9.09751E-001	  0.00000E+000	  0.00000E+000
  2.25000E-004	  9.10804E-001	  9.02244E-001	  0.00000E+000	  0.00000E+000
  2.50000E-004	  9.21260E-001	  9.14845E-001	  0.00000E+000	  0.00000E+000
  2.75000E-004	  9.05480E-001	  9.03699E-001	  0.00000E+000	  0.00000E+000
  3.00000E-004	  9.16319E-001	  8.96959E-001	  0.00000E+000	  0.00000E+000
  3.25000E-004	  9.15362E-001	  9.06495E-001	  0.00000E+000	  0.00000E+000
  3.50000E-004	  9.09234E-001	  9.08563E-001	  0.00000E+000	  0.00000E+000
  3.75000E-004	  9.20379E-001	  9.33075E-001	  0.00000E+000	  0.00000E+000
  4.00000E-004	  9.14797E-001	  9.17890E-001	  0.00000E+000	  0.00000E+000
  4.50000E-004	  9.16884E-001	  9.09483E-001	  0.00000E+000	  0.00000E+000
  5.00000E-004	  9.14969E-001	  9.13754E-001	  0.00000E+000	  0.00000E+000
  5.50000E-004	  9.12307E-001	  9.17488E-001	  0.00000E+000	  0.00000E+000
  6.00000E-004	  9.21212E-001	  9.29418E-001	  0.00000E+000	  0.00000E+000
  6.50000E-004	  9.16118E-001	  9.17124E-001	  0.00000E+000	  0.00000E+000
  7.00000E-004	  9.11015E-001	  9.15937E-001	  0.00000E+000	  0.00000E+000
  7.50000E-004	  9.17621E-001	  9.13620E-001	  0.00000E+000	  0.00000E+000
  8.00000E-004	  9.19202E-001	  9.24066E-001	  0.00000E+000	  0.00000E+000
  9.00000E-004	  9.08569E-001	  9.06457E-001	  0.00000E+000	  0.00000E+000
  1.00000E-003	  9.09248E-001	  9.09904E-001	  0.00000E+000	  0.00000E+000
  1.10000E-003	  9.11355E-001	  9.12796E-001	  0.00000E+000	  0.00000E+000
  1.20000E-003	  9.19675E-001	  9.22735E-001	  0.00000E+000	  0.00000E+000
  1.30000E-003	  9.15768E-001	  9.09033E-001	  0.00000E+000	  0.00000E+000
  1.40000E-003	  9.08271E-001	  9.04619E-001	  0.00000E+000	  0.00000E+000
  1.50000E-003	  9.14193E-001	  9.14969E-001	  0.00000E+000	  0.00000E+000
  1.60000E-003	  9.11930E-001	  9.13132E-001	  0.00000E+000	  0.00000E+000
  1.80000E-003	  9.12357E-001	  9.11893E-001	  0.00000E+000	  0.00000E+000
  2.00000E-003	  9.11363E-001	  9.11514E-001	  0.00000E+000	  0.00000E+000
  2.20000E-003	  9.13563E-001	  9.12802E-001	  0.00000E+000	  0.00000E+000
  2.40000E-003	  9.07380E-001	  9.07976E-001	  0.00000E+000	  0.00000E+000
  2.60000E-003	  9.07473E-001	  9.05511E-001	  0.00000E+000	  0.00000E+000
  2.80000E-003	  9.09158E-001	  9.12448E-001	  0.00000E+000	  0.00000E+000
  3.00000E-003	  9.06661E-001	  9.05257E-001	  0.00000E+000	  0.00000E+000
  3.20000E-003	  9.08608E-001	  9.08851E-001	  0.00000E+000	  0.00000E+000
  3.60000E-003	  9.09582E-001	  9.08918E-001	  0.00000E+000	  0.00000E+000
  4.00000E-003	  9.05985E-001	  9.04920E-001	  0.00000E+000	  0.00000E+000
  4.40000E-003	  9.05347E-001	  9.06672E-001	  0.00000E+000	  0.00000E+000
  4.80000E-003	  9.03869E-001	  9.01799E-001	  0.00000E+000	  0.00000E+000
  5.20000E-003	  9.01669E-001	  9.00865E-001	  0.00000E+000	  0.00000E+000
  5.60000E-003	  9.02466E-001	  9.02538E-001	  0.00000E+000	  0.00000E+000
  6.00000E-003	  9.02824E-001	  9.01068E-001	  0.00000E+000	  0.00000E+000
  6.40000E-003	  9.01237E-001	  9.00378E-001	  0.00000E+000	  0.00000E+000
  7.20000E-003	  9.00065E-001	  9.00882E-001	  0.00000E+000	  0.00000E+000
  8.00000E-003	  8.98502E-001	  8.98976E-001	  0.00000E+000	  0.00000E+000
  8.80000E-003	  8.96352E-001	  8.94661E-001	  0.00000E+000	  0.00000E+000
  9.60000E-003	  8.95260E-001	  8.95280E-001	  0.00000E+000	  0.00000E+000
  1.04000E-002	  8.95416E-001	  8.97685E-001	  0.00000E+000	  0.00000E+000
  1.12000E-002	  8.90823E-001	  8.90573E-001	  0.00000E+000	  0.00000E+000
  1.20000E-002	  8.90687E-001	  8.91936E-001	  0.00000E+000	  0.00000E+000
  1.28000E-002	  8.90196E-001	  8.90772E-001	  0.00000E+000	  0.00000E+000
  1.44000E-002	  8.86042E-001	  8.86007E-001	  0.00000E+000	  0.00000E+000
  1.60000E-002	  8.83967E-001	  8.83351E-001	  0.00000E+000	  0.00000E+000
  1.76000E-002	  8.81064E-001	  8.81404E-001	  0.00000E+000	  0.00000E+000
  1.92000E-002	  8.76379E-001	  8.76409E-001	  0.00000E+000	  0.00000E+000
  2.08000E-002	  8.74947E-001	  8.75310E-001	  0.00000E+000	  0.00000E+000
  2.24000E-002	  8.71922E-001	  8.72194E-001	  0.00000E+000	  0.00000E+000
  2.40000E-002	  8.69448E-001	  8.68964E-001	  0.00000E+000	  0.00000E+000
  2.56000E-002	  8.65972E-001	  8.66421E-001	  0.00000E+000	  0.00000E+000
  2.88000E-002	  8.60857E-001	  8.62216E-001	  0.00000E+000	  0.00000E+000
  3.20000E-002	  8.54659E-001	  8.54041E-001	  0.00000E+000	  0.00000E+000
  3.52000E-002	  8.50227E-001	  8.51122E-001	  0.00000E+000	  0.00000E+000
  3.84000E-002	  8.43744E-001	  8.45317E-001	  0.00000E+000	  0.00000E+000
  4.16000E-002	  8.38212E-001	  8.38355E-001	  0.00000E+000	  0.00000E+000
  4.48000E-002	  8.32235E-001	  8.33693E-001	  0.00000E+000	  0.00000E+000
  4.80000E-002	  8.28146E-001	  8.29262E-001	  0.00000E+000	  0.00000E+000
  5.12000E-002	  8.22181E-001	  8.22602E-001	  0.00000E+000	  0.00000E+000
  5.76000E-002	  8.12222E-001	  8.13215E-001	  0.00000E+000	  0.00000E+000
  6.40000E-002	  8.01811E-001	  8.02050E-001	  0.00000E+000	  0.00000E+000
  7.04000E-002	  7.91979E-001	  7.93023E-001	  0.00000E+000	  0.00000E+000
  7.68000E-002	  7.81860E-001	  7.82573E-001	  0.00000E+000	  0.00000E+000
  8.32000E-002	  7.71944E-001	  7.71806E-001	  0.00000E+000	  0.00000E+000
  8.96000E-002	  7.62552E-001	  7.63353E-001	  0.00000E+000	  0.00000E+000
  9.60000E-002	  7.53243E-001	  7.54371E-001	  0.00000E+000	  0.00000E+000
  1.02400E-001	  7.44201E-001	  7.44792E-001	  0.00000E+000	  0.00000E+000
  1.15200E-001	  7.25398E-001	  7.26268E-001	  0.00000E+000	  0.00000E+000
  1.28000E-001	  7.07623E-001	  7.07832E-001	  0.00000E+000	  0.00000E+000
  1.40800E-001	  6.90330E-001	  6.91316E-001	  0.00000E+000	  0.00000E+000
  1.53600E-001	  6.74282E-001	  6.75016E-001	  0.00000E+000	  0.00000E+000
  1.66400E-001	  6.57526E-001	  6.57852E-001	  0.00000E+000	  0.00000E+000
  1.79200E-001	  6.41714E-001	  6.41713E-001	  0.00000E+000	  0.00000E+000
  1.92000E-001	  6.26181E-001	  6.26305E-001	  0.00000E+000	  0.00000E+000
  2.04800E-001	  6.11365E-001	  6.11261E-001	  0.00000E+000	  0.00000E+000
  2.30400E-001	  5.82000E-001	  5.82401E-001	  0.00000E+000	  0.00000E+000
  2.56000E-001	  5.54330E-001	  5.54562E-001	  0.00000E+000	  0.00000E+000
  2.81600E-001	  5.28114E-001	  5.28237E-001	  0.00000E+000	  0.00000E+000
  3.07200E-001	  5.03828E-001	  5.04499E-001	  0.00000E+000	  0.00000E+000
  3.32800E-001	  4.80417E-001	  4.80878E-001	  0.00000E+000	  0.00000E+000
  3.58400E-001	  4.58107E-001	  4.58458E-001	  0.00000E+000	  0.00000E+000
  3.84000E-001	  4.37020E-001	  4.37192E-001	  0.00000E+000	  0.00000E+000
  4.09600E-001	  4.17342E-001	  4.17555E-001	  0.00000E+000	  0.00000E+000
  4.60800E-001	  3.79960E-001	  3.80177E-001	  0.00000E+000	  0.00000E+000
  5.12000E-001	  3.45894E-001	  3.45891E-001	  0.00000E+000	  0.00000E+000
  5.63200E-001	  3.14846E-001	  3.15186E-001	  0.00000E+000	  0.00000E+000
  6.14400E-001	  2.87185E-001	  2.87216E-001	  0.00000E+000	  0.00000E+000
  6.65600E-001	  2.61961E-001	  2.61693E-001	  0.00000E+000	  0.00000E+000
  7.16800E-001	  2.39725E-001	  2.39511E-001	  0.00000E+000	  0.00000E+000
  7.68000E-001	  2.19346E-001	  2.19200E-001	  0.00000E+000	  0.00000E+000
  8.19200E-001	  2.01529E-001	  2.01289E-001	  0.00000E+000	  0.00000E+000
  9.21600E-001	  1.69171E-001	  1.69421E-001	  0.00000E+000	  0.00000E+000
  1.02400E+000	  1.42261E-001	  1.42419E-001	  0.00000E+000	  0.00000E+000
  1.12640E+000	  1.20126E-001	  1.19713E-001	  0.00000E+000	  0.00000E+000
  1.22880E+000	  1.02191E-001	  1.02350E-001	  0.00000E+000	  0.00000E+000
  1.33120E+000	  8.77444E-002	  8.81416E-002	  0.00000E+000	  0.00000E+000
  1.43360E+000	  7.62632E-002	  7.65203E-002	  0.00000E+000	  0.00000E+000
  1.53600E+000	  6.54077E-002	  6.49390E-002	  0.00000E+000	  0.00000E+000
  1.63840E+000	  5.69051E-002	  5.65275E-002	  0.00000E+000	  0.00000E+000
  1.84320E+000	  4.31270E-002	  4.25875E-002	  0.00000E+000	  0.00000E+000
  2.04800E+000	  3.38550E-002	  3.31954E-002	  0.00000E+000	  0.00000E+000
  2.25280E+000	  2.63110E-002	  2.55506E-002	  0.00000E+000	  0.00000E+000
  2.45760E+000	  2.15171E-002	  2.05135E-002	  0.00000E+000	  0.00000E+000
  2.66240E+000	  1.99822E-002	  1.90418E-002	  0.00000E+000	  0.00000E+000
  2.86720E+000	  1.96926E-002	  1.92408E-002	  0.00000E+000	  0.00000E+000
  3.07200E+000	  1.92571E-002	  1.90907E-002	  0.00000E+000	  0.00000E+000
  3.27680E+000	  1.88415E-002	  1.86739E-002	  0.00000E+000	  0.00000E+000
  3.68640E+000	  1.79624E-002	  1.78744E-002	  0.00000E+000	  0.00000E+000
  4.09600E+000	  8.73500E-003	  9.37401E-003	  0.00000E+000	  0.00000E+000
  4.50560E+000	 -1.77415E-003	 -1.53792E-003	  0.00000E+000	  0.00000E+000
  4.91520E+000	 -3.41388E-003	 -3.76391E-003	  0.00000E+000	  0.00000E+000
  5.32480E+000	 -2.30427E-003	 -2.33015E-003	  0.00000E+000	  0.00000E+000
  5.73440E+000	 -9.68872E-004	 -1.10757E-003	  0.00000E+000	  0.00000E+000
  6.14400E+000	 -1.64495E-003	 -1.88015E-003	  0.00000E+000	  0.00000E+000
  6.55360E+000	 -2.48804E-003	 -2.28402E-003	  0.00000E+000	  0.00000E+000
  7.37280E+000	 -2.02233E-003	 -1.60849E-003	  0.00000E+000	  0.00000E+000
  8.19200E+000	 -1.98953E-003	 -1.64386E-003	  0.00000E+000	  0.00000E+000
  9.01120E+000	 -3.44870E-003	 -3.37215E-003	  0.00000E+000	  0.00000E+000
  9.83040E+000	  4.24030E-003	  3.97793E-003	  0.00000E+000	  0.00000E+000
  1.06496E+001	  7.73277E-003	  7.26968E-003	  0.00000E+000	  0.00000E+000
  1.14688E+001	  3.67316E-003	  3.58848E-003	  0.00000E+000	  0.00000E+000
  1.22880E+001	 -8.70024E-004	 -7.23993E-004	  0.00000E+000	  0.00000E+000
  1.31072E+001	 -3.79019E-003	 -3.88733E-003	  0.00000E+000	  0.00000E+000
  1.47456E+001	 -3.78446E-003	 -4.03182E-003	  0.00000E+000	  0.00000E+000
  1.63840E+001	  4.57544E-003	  4.79825E-003	  0.00000E+000	  0.00000E+000
  1.80224E+001	  3.56547E-003	  3.07402E-003	  0.00000E+000	  0.00000E+000
  1.96608E+001	 -4.92234E-003	 -5.11526E-003	  0.00000E+000	  0.00000E+000
  2.12992E+001	 -9.44426E-003	 -9.72364E-003	  0.00000E+000	  0.00000E+000
  2.29376E+001	 -6.05213E-003	 -6.33574E-003	  0.00000E+000	  0.00000E+000
  2.45760E+001	 -2.97735E-003	 -2.77460E-003	  0.00000E+000	  0.00000E+000
  2.62144E+001	  3.37848E-003	  3.64420E-003	  0.00000E+000	  0.00000E+000
  2.94912E+001	  1.85565E-003	  1.94701E-003	  0.00000E+000	  0.00000E+000
  3.27680E+001	 -4.68006E-003	 -4.36517E-003	  0.00000E+000	  0.00000E+000
  3.60448E+001	 -7.91191E-004	 -7.60999E-004	  0.00000E+000	  0.00000E+000
  3.93216E+001	 -4.34374E-003	 -4.67705E-003	  0.00000E+000	  0.00000E+000
  4.25984E+001	 -3.41312E-003	 -3.97986E-003	  0.00000E+000	  0.00000E+000
  4.58752E+001	  2.15192E-003	  2.14394E-003	  0.00000E+000	  0.00000E+000
  4.91520E+001	 -1.20648E-003	 -1.67803E-003	  0.00000E+000	  0.00000E+000
  5.24288E+001	 -4.42371E-003	 -4.56335E-003	  0.00000E+000	  0.00000E+000
  5.89824E+001	  3.54947E-003	  3.54227E-003	  0.00000E+000	  0.00000E+000
  6.55360E+001	  5.63378E-004	  6.12030E-004	  0.00000E+000	  0.00000E+000
  7.20896E+001	  3.91400E-003	  3.76908E-003	  0.00000E+000	  0.00000E+000
  7.86432E+001	 -8.46330E-004	 -9.29657E-004	  0.00000E+000	  0.00000E+000
  8.51968E+001	  3.56209E-003	  3.67620E-003	  0.00000E+000	  0.00000E+000
  9.17504E+001	 -1.81728E-003	 -1.67331E-003	  0.00000E+000	  0.00000E+000
  9.83040E+001	 -4.13288E-003	 -4.17410E-003	  0.00000E+000	  0.00000E+000
  1.04858E+002	 -2.95587E-003	 -3.23293E-003	  0.00000E+000	  0.00000E+000
  1.17965E+002	  3.12303E-003	  3.20601E-003	  0.00000E+000	  0.00000E+000
  1.31072E+002	 -5.24678E-003	 -5.19634E-003	  0.00000E+000	  0.00000E+000
  1.44179E+002	 -2.13096E-003	 -2.05596E-003	  0.00000E+000	  0.00000E+000
  1.57286E+002	 -5.59982E-004	 -4.51256E-004	  0.00000E+000	  0.00000E+000
  1.70394E+002	 -1.73421E-003	 -1.95251E-003	  0.00000E+000	  0.00000E+000
  1.83501E+002	  1.02525E-004	  1.86702E-004	  0.00000E+000	  0.00000E+000
  1.96608E+002	 -1.45635E-003	 -1.50549E-003	  0.00000E+000	  0.00000E+000
  2.09715E+002	 -3.83451E-003	 -3.79833E-003	  0.00000E+000	  0.00000E+000
  2.35930E+002	 -1.89604E-003	 -1.92959E-003	  0.00000E+000	  0.00000E+000
  2.62144E+002	 -4.59673E-004	 -3.77605E-004	  0.00000E+000	  0.00000E+000
  2.88358E+002	 -2.12268E-003	 -2.15264E-003	  0.00000E+000	  0.00000E+000
  3.14573E+002	 -1.19792E-003	 -1.17774E-003	  0.00000E+000	  0.00000E+000
  3.40787E+002	  2.33885E-003	  2.19306E-003	  0.00000E+000	  0.00000E+000
  3.67002E+002	 -5.67960E-004	 -5.16773E-004	  0.00000E+000	  0.00000E+000
  3.93216E+002	  1.35452E-004	  1.98844E-004	  0.00000E+000	  0.00000E+000
  4.19430E+002	 -1.86875E-004	 -2.30423E-004	  0.00000E+000	  0.00000E+000
  4.71859E+002	  3.93013E-003	  3.92097E-003	  0.00000E+000	  0.00000E+000
  5.24288E+002	 -1.24538E-003	 -1.26498E-003	  0.00000E+000	  0.00000E+000
  5.76717E+002	 -1.92590E-003	 -2.00130E-003	  0.00000E+000	  0.00000E+000
  6.29146E+002	 -5.21226E-005	 -7.68105E-005	  0.00000E+000	  0.00000E+000
  6.81574E+002	 -6.07354E-004	 -5.34612E-004	  0.00000E+000	  0.00000E+000
  7.34003E+002	  1.75049E-003	  1.68812E-003	  0.00000E+000	  0.00000E+000
  7.86432E+002	  2.26111E-003	  2.30991E-003	  0.00000E+000	  0.00000E+000
  8.38861E+002	  7.49198E-004	  8.18303E-004	  0.00000E+000	  0.00000E+000
  9.43718E+002	 -1.59460E-003	 -1.62894E-003	  0.00000E+000	  0.00000E+000
  1.04858E+003	 -6.94665E-004	 -6.99692E-004	  0.00000E+000	  0.00000E+000
  1.15343E+003	  5.98226E-004	  6.33979E-004	  0.00000E+000	  0.00000E+000
  1.25829E+003	  6.16566E-004	  5.56058E-004	  0.00000E+000	  0.00000E+000
  1.36315E+003	  7.40186E-005	  3.18714E-005	  0.00000E+000	  0.00000E+000
  1.46801E+003	 -4.34149E-004	 -3.45394E-004	  0.00000E+000	  0.00000E+000
  1.57286E+003	  8.35270E-004	  8.32197E-004	  0.00000E+000	  0.00000E+000
  1.67772E+003	  1.49890E-004	  1.84516E-004	  0.00000E+000	  0.00000E+000
  1.88744E+003	  4.12493E-004	  2.92414E-004	  0.00000E+000	  0.00000E+000
  2.09715E+003	 -9.72861E-005	 -2.89682E-005	  0.00000E+000	  0.00000E+000
  2.30687E+003	 -8.16663E-004	 -7.90769E-004	  0.00000E+000	  0.00000E+000
  2.51658E+003	 -1.78591E-003	 -1.83248E-003	  0.00000E+000	  0.00000E+000
  2.72630E+003	  1.45606E-003	  1.54615E-003	  0.00000E+000	  0.00000E+000
  2.93601E+003	 -2.06815E-003	 -2.03931E-003	  0.00000E+000	  0.00000E+000
  3.14573E+003	  1.94312E-003	  1.78099E-003	  0.00000E+000	  0.00000E+000

"Count Rate"
       0.03906	     316.97379	     324.20853	     316.97379	     324.20853
       0.07813	     421.73697	     431.93719	     421.73697	     431.93719
       0.11719	     324.59201	     337.96222	     324.59201	     337.96222
       0.15625	     253.08820	     259.01913	     253.08820	     259.01913
       0.19531	     341.31116	     351.46024	     341.31116	     351.46024
       0.23438	     319.40240	     326.17700	     319.40240	     326.17700
       0.27344	     305.52090	     309.81573	     305.52090	     309.81573
       0.31250	     371.65619	     379.50446	     371.65619	     379.50446
       0.35156	     355.47388	     363.52667	     355.47388	     363.52667
       0.39063	     302.06970	     311.75864	     302.06970	     311.75864
       0.42969	     388.73325	     394.63864	     388.73325	     394.63864
       0.46875	     341.72018	     353.70993	     341.72018	     353.70993
       0.50781	     281.49033	     290.64240	     281.49033	     290.64240
       0.54688	     359.76871	     371.60504	     359.76871	     371.60504
       0.58594	     243.29700	     253.36940	     243.29700	     253.36940
       0.62500	     374.80060	     381.85638	     374.80060	     381.85638
       0.66406	     340.82544	     348.90381	     340.82544	     348.90381
       0.70313	     266.99527	     271.54575	     266.99527	     271.54575
       0.74219	     271.34122	     279.41959	     271.34122	     279.41959
       0.78125	     288.64835	     295.29514	     288.64835	     295.29514
       0.82031	     368.92078	     379.17212	     368.92078	     379.17212
       0.85938	     292.27850	     303.73138	     292.27850	     303.73138
       0.89844	     341.38785	     348.18799	     341.38785	     348.18799
       0.93750	     440.70578	     452.18423	     440.70578	     452.18423
       0.97656	     314.49402	     315.90009	     314.49402	     315.90009
       1.01563	     261.70343	     261.75455	     261.70343	     261.75455
       1.05469	     321.88217	     331.31546	     321.88217	     331.31546
       1.09375	     298.31174	     305.34195	     298.31174	     305.34195
       1.13281	     320.96185	     327.60861	     320.96185	     327.60861
       1.17188	     276.12177	     285.40167	     276.12177	     285.40167
       1.21094	     369.17642	     385.97226	     369.17642	     385.97226
       1.25000	     324.56644	     333.25836	     324.56644	     333.25836
       1.28906	     287.67691	     290.51456	     287.67691	     290.51456
       1.32813	     348.80154	     360.53564	     348.80154	     360.53564
       1.36719	     356.01071	     358.31152	     356.01071	     358.31152
       1.40625	     352.55951	     369.81552	     352.55951	     369.81552
       1.44531	     245.29103	     247.79634	     245.29103	     247.79634
       1.48438	     259.30035	     264.25986	     259.30035	     264.25986
       1.52344	     313.98276	     326.22812	     313.98276	     326.22812
       1.56250	     321.06409	     327.96649	     321.06409	     327.96649
       1.60156	     283.04974	     286.04077	     283.04974	     286.04077
       1.64063	     303.68027	     307.69388	     303.68027	     307.69388
       1.67969	     276.30072	     283.48434	     276.30072	     283.48434
       1.71875	     402.07788	     409.05698	     402.07788	     409.05698
       1.75781	     356.36862	     366.54327	     356.36862	     366.54327
       1.79688	     386.35574	     402.97266	     386.35574	     402.97266
       1.83594	     311.57968	     318.81442	     311.57968	     318.81442
       1.87500	     277.39999	     293.73569	     277.39999	     293.73569
       1.91406	     299.84558	     309.12549	     299.84558	     309.12549
       1.95313	     365.06055	     368.30722	     365.06055	     368.30722
       1.99219	     299.69220	     306.31342	     299.69220	     306.31342
       2.03125	     329.78159	     343.91873	     329.78159	     343.91873
       2.07031	     315.72113	     326.04916	     315.72113	     326.04916
       2.10938	     341.95026	     349.77298	     341.95026	     349.77298
       2.14844	     383.95267	     389.62799	     383.95267	     389.62799
       2.18750	     279.36847	     289.26190	     279.36847	     289.26190
       2.22656	     258.86575	     270.16525	     258.86575	     270.16525
       2.26563	     465.75897	     473.07040	     465.75897	     473.07040
       2.30469	     281.72040	     283.56104	     281.72040	     283.56104
       2.34375	     269.78180	     272.90067	     269.78180	     272.90067
       2.38281	     294.32367	     300.79147	     294.32367	     300.79147
       2.42188	     309.66235	     317.17831	     309.66235	     317.17831
       2.46094	     363.19434	     373.31787	     363.19434	     373.31787
       2.50000	     351.56250	     356.93103	     351.56250	     356.93103
       2.53906	     351.07678	     360.20331	     351.07678	     360.20331
       2.57813	     382.00980	     401.15756	     382.00980	     401.15756
       2.61719	     243.55264	     253.24158	     243.55264	     253.24158
       2.65625	     282.64072	     284.58362	     282.64072	     284.58362
       2.69531	     232.04865	     232.66219	     232.04865	     232.66219
       2.73438	     281.72040	     288.64835	     281.72040	     288.64835
       2.77344	     478.74573	     494.59567	     478.74573	     494.59567
       2.81250	     366.85007	     377.22922	     366.85007	     377.22922
       2.85156	     346.80753	     356.13855	     346.80753	     356.13855
       2.89063	     336.35165	     340.79987	     336.35165	     340.79987
       2.92969	     336.35165	     341.79688	     336.35165	     341.79688
       2.96875	     336.70956	     349.28726	     336.70956	     349.28726
       3.00781	     265.00122	     281.10684	     265.00122	     281.10684
       3.04688	     320.91071	     329.32141	     320.91071	     329.32141
       3.08594	     400.23724	     407.82990	     400.23724	     407.82990
       3.12500	     352.61066	     368.99747	     352.61066	     368.99747
       3.16406	     381.14059	     392.97693	     381.14059	     392.97693
       3.20313	     421.63470	     431.34921	     421.63470	     431.34921
       3.24219	     297.90271	     305.62317	     297.90271	     305.62317
       3.28125	     337.60431	     344.32776	     337.60431	     344.32776
       3.32031	     321.95886	     326.96948	     321.95886	     326.96948
       3.35938	     273.82098	     277.24661	     273.82098	     277.24661
       3.39844	     335.43134	     337.62988	     335.43134	     337.62988
       3.43750	     245.18877	     252.62804	     245.18877	     252.62804
       3.47656	     325.69128	     333.28391	     325.69128	     333.28391
       3.51563	     279.95645	     286.29642	     279.95645	     286.29642
       3.55469	     373.42014	     380.96164	     373.42014	     380.96164
       3.59375	     381.70300	     398.29434	     381.70300	     398.29434
       3.63281	     353.53098	     355.80621	     353.53098	     355.80621
       3.67188	     366.85007	     372.19302	     366.85007	     372.19302
       3.71094	     259.93945	     263.33954	     259.93945	     263.33954
       3.75000	     347.65115	     358.05588	     347.65115	     358.05588
       3.78906	     353.70993	     365.98087	     353.70993	     365.98087
       3.82813	     316.23242	     325.81909	     316.23242	     325.81909
       3.86719	     314.28952	     323.54385	     314.28952	     323.54385
       3.90625	     272.84952	     287.08893	     272.84952	     287.08893
       3.94531	     260.32294	     270.08856	     260.32294	     270.08856
       3.98438	     381.70300	     391.08517	     381.70300	     391.08517
       4.02344	     280.10983	     283.20313	     280.10983	     283.20313
       4.06250	     331.21320	     336.04489	     331.21320	     336.04489
       4.10156	     289.56870	     298.31174	     289.56870	     298.31174
       4.14063	     317.45950	     322.98145	     317.45950	     322.98145
       4.17969	     351.00009	     363.39886	     351.00009	     363.39886
       4.21875	     267.81332	     276.22403	     267.81332	     276.22403
       4.25781	     295.90866	     303.29678	     295.90866	     303.29678
       4.29688	     273.51419	     277.19550	     273.51419	     277.19550
       4.33594	     319.42798	     334.84335	     319.42798	     334.84335
       4.37500	     299.41101	     304.98404	     299.41101	     304.98404
       4.41406	     288.54611	     295.19287	     288.54611	     295.19287
       4.45313	     344.53229	     344.71124	     344.53229	     344.71124
       4.49219	     225.78534	     235.42314	     225.78534	     235.42314
       4.53125	     325.99805	     336.47946	     325.99805	     336.47946
       4.57031	     282.87079	     292.30408	     282.87079	     292.30408
       4.60938	     338.88254	     350.07977	     338.88254	     350.07977
       4.64844	     199.14717	     210.75343	     199.14717	     210.75343
       4.68750	     245.52110	     252.37239	     245.52110	     252.37239
       4.72656	     252.98593	     264.00421	     252.98593	     264.00421
       4.76563	     392.46564	     403.17715	     392.46564	     403.17715
       4.80469	     325.20554	     330.57410	     325.20554	     330.57410
       4.84375	     317.17831	     327.19958	     317.17831	     327.19958
       4.88281	     407.95770	     419.30835	     407.95770	     419.30835
       4.92188	     360.33112	     362.98981	     360.33112	     362.98981
       4.96094	     276.09622	     287.70248	     276.09622	     287.70248
       5.00000	     367.87262	     377.38263	     367.87262	     377.38263
       5.03906	     412.89166	     418.95044	     412.89166	     418.95044
       5.07813	     259.58157	     266.45840	     259.58157	     266.45840
       5.11719	     299.71777	     308.15405	     299.71777	     308.15405
       5.15625	     255.08221	     263.21173	     255.08221	     263.21173
       5.19531	     291.30707	     303.39905	     291.30707	     303.39905
       5.23438	     307.38712	     314.97977	     307.38712	     314.97977
       5.27344	     363.88458	     376.87134	     363.88458	     376.87134
       5.31250	     233.88928	     238.79765	     233.88928	     238.79765
       5.35156	     293.42892	     299.38544	     293.42892	     299.38544
       5.39063	     324.20853	     342.46155	     324.20853	     342.46155
       5.42969	     313.65042	     322.67465	     313.65042	     322.67465
       5.46875	     342.99841	     347.77896	     342.99841	     347.77896
       5.50781	     284.07233	     290.69351	     284.07233	     290.69351
       5.54688	     438.43054	     455.32867	     438.43054	     455.32867
       5.58594	     342.38486	     352.02267	     342.38486	     352.02267
       5.62500	     268.55469	     272.18484	     268.55469	     272.18484
       5.66406	     271.75024	     277.29773	     271.75024	     277.29773
       5.70313	     284.91595	     299.94785	     284.91595	     299.94785
       5.74219	     250.96634	     251.75883	     250.96634	     251.75883
       5.78125	     265.89600	     276.65863	     265.89600	     276.65863
       5.82031	     265.56366	     275.35483	     265.56366	     275.35483
       5.85938	     304.75397	     312.67896	     304.75397	     312.67896
       5.89844	     305.87881	     313.82935	     305.87881	     313.82935
       5.93750	     323.90176	     338.60132	     323.90176	     338.60132
       5.97656	     301.40503	     310.27591	     301.40503	     310.27591
       6.01563	     379.96463	     388.65656	     379.96463	     388.65656
       6.05469	     279.41959	     287.95813	     279.41959	     287.95813
       6.09375	     297.80045	     311.52856	     297.80045	     311.52856
       6.13281	     323.67166	     325.84467	     323.67166	     325.84467
       6.17188	     315.64444	     319.30014	     315.64444	     319.30014
       6.21094	     373.77802	     383.82486	     373.77802	     383.82486
       6.25000	     293.58231	     299.97342	     293.58231	     299.97342
       6.28906	     313.80380	     319.68362	     313.80380	     319.68362
       6.32813	     212.77303	     215.66182	     212.77303	     215.66182
       6.36719	     349.95193	     361.25143	     349.95193	     361.25143
       6.40625	     244.77974	     255.18448	     244.77974	     255.18448
       6.44531	     371.27271	     378.40518	     371.27271	     378.40518
       6.48438	     386.79034	     396.45370	     386.79034	     396.45370
       6.52344	     296.21545	     302.60657	     296.21545	     302.60657
       6.56250	     347.13986	     357.49347	     347.13986	     357.49347
       6.60156	     286.44983	     297.31473	     286.44983	     297.31473
       6.64063	     327.27628	     336.37723	     327.27628	     336.37723
       6.67969	     255.95142	     263.95309	     255.95142	     263.95309
       6.71875	     280.51886	     290.69351	     280.51886	     290.69351
       6.75781	     353.12195	     359.25742	     353.12195	     359.25742
       6.79688	     340.36526	     348.00903	     340.36526	     348.00903
       6.83594	     338.62689	     340.87656	     338.62689	     340.87656
       6.87500	     316.13016	     319.47910	     316.13016	     319.47910
       6.91406	     327.83868	     336.50504	     327.83868	     336.50504
       6.95313	     287.44684	     298.05609	     287.44684	     298.05609
       6.99219	     365.16281	     370.88925	     365.16281	     370.88925
       7.03125	     282.53845	     282.46176	     282.53845	     282.46176
       7.07031	     293.37778	     301.04712	     293.37778	     301.04712
       7.10938	     389.06558	     402.99820	     389.06558	     402.99820
       7.14844	     229.51776	     236.90588	     229.51776	     236.90588
       7.18750	     438.53281	     452.61884	     438.53281	     452.61884
       7.22656	     375.03067	     387.88962	     375.03067	     387.88962
       7.26563	     346.65414	     359.89651	     346.65414	     359.89651
       7.30469	     204.79692	     209.47522	     204.79692	     209.47522
       7.34375	     225.65752	     233.40355	     225.65752	     233.40355
       7.38281	     231.17944	     240.40822	     231.17944	     240.40822
       7.42188	     335.32907	     350.15646	     335.32907	     350.15646
       7.46094	     263.79971	     270.65097	     263.79971	     270.65097
       7.50000	     253.75287	     261.57559	     253.75287	     261.57559
       7.53906	     293.17328	     298.66962	     293.17328	     298.66962
       7.57813	     291.33264	     301.27719	     291.33264	     301.27719
       7.61719	     440.14337	     455.32867	     440.14337	     455.32867
       7.65625	     350.97452	     372.62762	     350.97452	     372.62762
       7.69531	     319.68362	     326.38150	     319.68362	     326.38150
       7.73438	     329.83270	     338.29456	     329.83270	     338.29456
       7.77344	     250.22498	     261.72897	     250.22498	     261.72897
       7.81250	     299.23206	     305.18857	     299.23206	     305.18857
       7.85156	     350.13089	     366.54327	     350.13089	     366.54327
       7.89063	     253.95738	     260.62970	     253.95738	     260.62970
       7.92969	     398.67783	     405.42682	     398.67783	     405.42682
       7.96875	     313.39478	     326.30481	     313.39478	     326.30481
       8.00781	     353.63324	     356.26636	     353.63324	     356.26636
       8.04688	     342.48712	     350.46323	     342.48712	     350.46323
       8.08594	     333.05383	     333.53955	     333.05383	     333.53955
       8.12500	     362.45297	     365.46957	     362.45297	     365.46957
       8.16406	     273.92322	     282.94748	     273.92322	     282.94748
       8.20313	     310.22476	     321.47314	     310.22476	     321.47314
       8.24219	     275.96838	     281.46475	     275.96838	     281.46475
       8.28125	     294.93723	     298.82303	     294.93723	     298.82303
       8.32031	     354.24677	     358.33710	     354.24677	     358.33710
       8.35938	     367.13126	     378.02173	     367.13126	     378.02173
       8.39844	     282.28281	     290.31006	     282.28281	     290.31006
       8.43750	     348.34137	     361.22586	     348.34137	     361.22586
       8.47656	     374.80060	     375.79761	     374.80060	     375.79761
       8.51563	     348.39252	     356.54758	     348.39252	     356.54758
       8.55469	     415.78043	     426.08292	     415.78043	     426.08292
       8.59375	     272.21042	     279.90530	     272.21042	     279.90530
       8.63281	     313.29251	     317.20386	     313.29251	     317.20386
       8.67188	     261.85681	     268.78476	     261.85681	     268.78476
       8.71094	     314.85193	     325.10327	     314.85193	     325.10327
       8.75000	     337.83438	     349.87524	     337.83438	     349.87524
       8.78906	     297.74930	     315.18427	     297.74930	     315.18427
       8.82813	     370.50577	     374.82617	     370.50577	     374.82617
       8.86719	     239.48790	     245.16321	     239.48790	     245.16321
       8.90625	     316.41138	     322.64911	     316.41138	     322.64911
       8.94531	     290.71909	     300.61252	     290.71909	     300.61252
       8.98438	     304.21713	     318.86557	     304.21713	     318.86557
       9.02344	     393.79501	     407.65094	     393.79501	     407.65094
       9.06250	     270.90662	     283.81668	     270.90662	     283.81668
       9.10156	     305.98108	     308.69089	     305.98108	     308.69089
       9.14063	     324.84766	     332.23578	     324.84766	     332.23578
       9.17969	     327.76199	     337.16971	     327.76199	     337.16971
       9.21875	     324.02957	     332.03125	     324.02957	     332.03125
       9.25781	     431.27249	     444.51489	     431.27249	     444.51489
       9.29688	     417.05865	     423.70541	     417.05865	     423.70541
       9.33594	     275.94281	     286.04077	     275.94281	     286.04077
       9.37500	     337.65543	     348.77597	     337.65543	     348.77597
       9.41406	     233.99153	     244.31958	     233.99153	     244.31958
       9.45313	     405.09448	     419.23163	     405.09448	     419.23163
       9.49219	     296.13876	     307.36154	     296.13876	     307.36154
       9.53125	     313.39478	     324.54086	     313.39478	     324.54086
       9.57031	     285.81070	     291.43488	     285.81070	     291.43488
       9.60938	     262.57260	     268.17123	     262.57260	     268.17123
       9.64844	     267.96671	     280.64670	     267.96671	     280.64670
       9.68750	     296.06204	     312.78122	     296.06204	     312.78122
       9.72656	     269.60284	     280.18652	     269.60284	     280.18652
       9.76563	     327.42966	     335.12454	     327.42966	     335.12454
       9.80469	     307.66833	     320.22046	     307.66833	     320.22046
       9.84375	     292.96875	     305.46979	     292.96875	     305.46979
       9.88281	     281.69482	     290.05441	     281.69482	     290.05441

Monitor Diode	 256713.74

"Cumulant 1.Order"
FluctuationFreq. [1/ms]	 9.3453E-001
DiffCoefficient [µm²/s]	 1.9905E+000
Hydrodyn. Radius [nm]	 1.2248E+002

"Cumulant 2.Order"
FluctuationFreq. [1/ms]	 9.9972E-001
DiffCoefficient [µm²/s]	 2.1294E+000
Hydrodyn. Radius [nm]	 1.1449E+002
Expansion Parameter µ2	 1.8223E-001

"Cumulant 3.Order"
FluctuationFreq. [1/ms]	 1.0150E+000
DiffCoefficient [µm²/s]	 2.1620E+000
Hydrodyn. Radius [nm]	 1.1276E+002
Expansion Parameter µ2	 2.9057E-001
Expansion Parameter µ3	 2.3319E-001

"StandardDeviation"
  2.50000E-005	  1.58706E-002
  5.00000E-005	  1.58712E-002
  7.50000E-005	  1.58710E-002
  1.00000E-004	  1.58719E-002
  1.25000E-004	  1.58723E-002
  1.50000E-004	  1.58725E-002
  1.75000E-004	  1.58733E-002
  2.00000E-004	  1.58736E-002
  2.25000E-004	  1.58693E-002
  2.50000E-004	  1.58723E-002
  2.75000E-004	  1.58529E-002
  3.00000E-004	  1.58659E-002
  3.25000E-004	  1.58643E-002
  3.50000E-004	  1.58565E-002
  3.75000E-004	  1.58701E-002
  4.00000E-004	  1.45384E-002
  4.50000E-004	  1.45394E-002
  5.00000E-004	  1.45383E-002
  5.50000E-004	  1.45368E-002
  6.00000E-004	  1.45427E-002
  6.50000E-004	  1.45393E-002
  7.00000E-004	  1.45359E-002
  7.50000E-004	  1.45401E-002
  8.00000E-004	  1.38295E-002
  9.00000E-004	  1.38265E-002
  1.00000E-003	  1.38266E-002
  1.10000E-003	  1.38272E-002
  1.20000E-003	  1.38290E-002
  1.30000E-003	  1.38280E-002
  1.40000E-003	  1.38263E-002
  1.50000E-003	  1.38276E-002
  1.60000E-003	  1.34583E-002
  1.80000E-003	  1.34575E-002
  2.00000E-003	  1.34573E-002
  2.20000E-003	  1.34574E-002
  2.40000E-003	  1.34571E-002
  2.60000E-003	  1.34570E-002
  2.80000E-003	  1.34571E-002
  3.00000E-003	  1.34570E-002
  3.20000E-003	  1.32684E-002
  3.60000E-003	  1.32664E-002
  4.00000E-003	  1.32667E-002
  4.40000E-003	  1.32665E-002
  4.80000E-003	  1.32667E-002
  5.20000E-003	  1.32668E-002
  5.60000E-003	  1.32664E-002
  6.00000E-003	  1.32662E-002
  6.40000E-003	  1.31708E-002
  7.20000E-003	  1.31671E-002
  8.00000E-003	  1.31671E-002
  8.80000E-003	  1.31671E-002
  9.60000E-003	  1.31666E-002
  1.04000E-002	  1.31662E-002
  1.12000E-002	  1.31667E-002
  1.20000E-002	  1.31660E-002
  1.28000E-002	  1.31159E-002
  1.44000E-002	  1.31098E-002
  1.60000E-002	  1.31091E-002
  1.76000E-002	  1.31087E-002
  1.92000E-002	  1.31089E-002
  2.08000E-002	  1.31076E-002
  2.24000E-002	  1.31070E-002
  2.40000E-002	  1.31060E-002
  2.56000E-002	  1.30763E-002
  2.88000E-002	  1.30627E-002
  3.20000E-002	  1.30620E-002
  3.52000E-002	  1.30601E-002
  3.84000E-002	  1.30590E-002
  4.16000E-002	  1.30576E-002
  4.48000E-002	  1.30560E-002
  4.80000E-002	  1.30526E-002
  5.12000E-002	  1.30331E-002
  5.76000E-002	  1.30061E-002
  6.40000E-002	  1.30022E-002
  7.04000E-002	  1.29967E-002
  7.68000E-002	  1.29905E-002
  8.32000E-002	  1.29844E-002
  8.96000E-002	  1.29768E-002
  9.60000E-002	  1.29688E-002
  1.02400E-001	  1.29482E-002
  1.15200E-001	  1.28925E-002
  1.28000E-001	  1.28717E-002
  1.40800E-001	  1.28501E-002
  1.53600E-001	  1.28238E-002
  1.66400E-001	  1.27996E-002
  1.79200E-001	  1.27725E-002
  1.92000E-001	  1.27434E-002
  2.04800E-001	  1.26813E-002
  2.30400E-001	  1.25614E-002
  2.56000E-001	  1.24854E-002
  2.81600E-001	  1.24065E-002
  3.07200E-001	  1.23250E-002
  3.32800E-001	  1.22378E-002
  3.58400E-001	  1.21449E-002
  3.84000E-001	  1.20529E-002
  4.09600E-001	  1.19552E-002
  4.60800E-001	  1.17370E-002
  5.12000E-001	  1.15518E-002
  5.63200E-001	  1.13562E-002
  6.14400E-001	  1.11621E-002
  6.65600E-001	  1.09921E-002
  7.16800E-001	  1.08010E-002
  7.68000E-001	  1.06065E-002
  8.19200E-001	  1.04103E-002
  9.21600E-001	  1.00193E-002
  1.02400E+000	  9.70340E-003
  1.12640E+000	  9.41525E-003
  1.22880E+000	  9.16036E-003
  1.33120E+000	  8.90827E-003
  1.43360E+000	  8.70687E-003
  1.53600E+000	  8.51660E-003
  1.63840E+000	  8.22735E-003
  1.84320E+000	  7.89591E-003
  2.04800E+000	  7.59653E-003
  2.25280E+000	  6.52370E-003
  2.45760E+000	  6.52370E-003
  2.66240E+000	  6.52370E-003
  2.86720E+000	  6.52370E-003
  3.07200E+000	  6.52370E-003
  3.27680E+000	  6.48514E-003
  3.68640E+000	  6.48514E-003
  4.09600E+000	  6.48514E-003
  4.50560E+000	  6.48514E-003
  4.91520E+000	  6.48514E-003
  5.32480E+000	  6.48514E-003
  5.73440E+000	  6.48514E-003
  6.14400E+000	  6.48514E-003
  6.55360E+000	  6.13879E-003
  7.37280E+000	  6.13879E-003
  8.19200E+000	  6.13879E-003
  9.01120E+000	  6.13879E-003
  9.83040E+000	  6.13879E-003
  1.06496E+001	  6.13879E-003
  1.14688E+001	  6.13879E-003
  1.22880E+001	  6.13879E-003
  1.31072E+001	  5.51074E-003
  1.47456E+001	  5.51074E-003
  1.63840E+001	  5.51074E-003
  1.80224E+001	  5.51074E-003
  1.96608E+001	  5.51074E-003
  2.12992E+001	  5.51074E-003
  2.29376E+001	  5.51074E-003
  2.45760E+001	  5.51074E-003
  2.62144E+001	  4.64552E-003
  2.94912E+001	  4.64552E-003
  3.27680E+001	  4.64552E-003
  3.60448E+001	  4.64552E-003
  3.93216E+001	  4.64552E-003
  4.25984E+001	  4.64552E-003
  4.58752E+001	  4.64552E-003
  4.91520E+001	  4.64552E-003
  5.24288E+001	  3.71238E-003
  5.89824E+001	  3.71238E-003
  6.55360E+001	  3.71238E-003
  7.20896E+001	  3.71238E-003
  7.86432E+001	  3.71238E-003
  8.51968E+001	  3.71238E-003
  9.17504E+001	  3.71238E-003
  9.83040E+001	  3.71238E-003
  1.04858E+002	  2.78067E-003
  1.17965E+002	  2.78067E-003
  1.31072E+002	  2.78067E-003
  1.44179E+002	  2.78067E-003
  1.57286E+002	  2.78067E-003
  1.70394E+002	  2.78067E-003
  1.83501E+002	  2.78067E-003
  1.96608E+002	  2.78067E-003
  2.09715E+002	  2.02269E-003
  2.35930E+002	  2.02269E-003
  2.62144E+002	  2.02269E-003
  2.88358E+002	  2.02269E-003
  3.14573E+002	  2.02269E-003
  3.40787E+002	  2.02269E-003
  3.67002E+002	  2.02269E-003
  3.93216E+002	  2.02269E-003
  4.19430E+002	  1.45000E-003
  4.71859E+002	  1.45000E-003
  5.24288E+002	  1.45000E-003
  5.76717E+002	  1.45000E-003
  6.29146E+002	  1.45000E-003
  6.81574E+002	  1.45000E-003
  7.34003E+002	  1.45000E-003
  7.86432E+002	  1.45000E-003
  8.38861E+002	  1.03196E-003
  9.43718E+002	  1.03196E-003
  1.04858E+003	  1.03196E-003
  1.15343E+003	  1.03196E-003
  1.25829E+003	  1.03196E-003
  1.36315E+003	  1.03196E-003
  1.46801E+003	  1.03196E-003
  1.57286E+003	  1.03196E-003
  1.67772E+003	  7.31615E-004
  1.88744E+003	  7.31615E-004
  2.09715E+003	  7.31615E-004
  2.30687E+003	  7.31615E-004
  2.51658E+003	  7.31615E-004
  2.72630E+003	  7.31615E-004
  2.93601E+003	  7.31615E-004
  3.14573E+003	  7.31615E-004
