ALV-7004/USB
Date :	"08.06.2022"
Time :	"14:30:19"
Samplename : 	"Samplename needed."
SampMemo(0) : 	""
SampMemo(1) : 	""
SampMemo(2) : 	""
SampMemo(3) : 	""
SampMemo(4) : 	""
SampMemo(5) : 	""
SampMemo(6) : 	""
SampMemo(7) : 	""
SampMemo(8) : 	""
SampMemo(9) : 	""
Temperature [K] :	     297.92293
Viscosity [cp]  :	       0.89487
Refractive Index:	       1.33200
Wavelength [nm] :	     632.80000
Angle [°]       :	      80.00000
Duration [s]    :	        10
FloatDur [ms]   :	         9961
Stop TP [ms]   :	  16777216
Runs            :	         1
Mode            :	"C-CH0/1+1/0"
MeanCR0 [kHz]   :	     395.78688
MeanCR1 [kHz]   :	     403.05188
MeanCR2 [kHz]   :	       0.00000
MeanCR3 [kHz]   :	       0.00000

"Correlation"
  2.50000E-005	  9.17184E-001	  9.20230E-001	  0.00000E+000	  0.00000E+000
  5.00000E-005	  9.15019E-001	  9.12603E-001	  0.00000E+000	  0.00000E+000
  7.50000E-005	  9.11936E-001	  9.10438E-001	  0.00000E+000	  0.00000E+000
  1.00000E-004	  9.11219E-001	  9.07619E-001	  0.00000E+000	  0.00000E+000
  1.25000E-004	  9.21489E-001	  9.28889E-001	  0.00000E+000	  0.00000E+000
  1.50000E-004	  9.15888E-001	  9.15045E-001	  0.00000E+000	  0.00000E+000
  1.75000E-004	  9.12200E-001	  9.09431E-001	  0.00000E+000	  0.00000E+000
  2.00000E-004	  9.09784E-001	  9.03365E-001	  0.00000E+000	  0.00000E+000
  2.25000E-004	  9.19185E-001	  9.16203E-001	  0.00000E+000	  0.00000E+000
  2.50000E-004	  9.15397E-001	  9.16278E-001	  0.00000E+000	  0.00000E+000
  2.75000E-004	  9.11571E-001	  9.13635E-001	  0.00000E+000	  0.00000E+000
  3.00000E-004	  9.17511E-001	  9.12578E-001	  0.00000E+000	  0.00000E+000
  3.25000E-004	  9.12804E-001	  9.12754E-001	  0.00000E+000	  0.00000E+000
  3.50000E-004	  9.07732E-001	  9.01175E-001	  0.00000E+000	  0.00000E+000
  3.75000E-004	  9.12439E-001	  9.26951E-001	  0.00000E+000	  0.00000E+000
  4.00000E-004	  9.16184E-001	  9.21086E-001	  0.00000E+000	  0.00000E+000
  4.50000E-004	  9.13968E-001	  9.09494E-001	  0.00000E+000	  0.00000E+000
  5.00000E-004	  9.18405E-001	  9.15485E-001	  0.00000E+000	  0.00000E+000
  5.50000E-004	  9.13704E-001	  9.09935E-001	  0.00000E+000	  0.00000E+000
  6.00000E-004	  9.14812E-001	  9.17335E-001	  0.00000E+000	  0.00000E+000
  6.50000E-004	  9.10665E-001	  9.11118E-001	  0.00000E+000	  0.00000E+000
  7.00000E-004	  9.10243E-001	  9.08613E-001	  0.00000E+000	  0.00000E+000
  7.50000E-004	  9.10180E-001	  9.03327E-001	  0.00000E+000	  0.00000E+000
  8.00000E-004	  9.11517E-001	  9.09387E-001	  0.00000E+000	  0.00000E+000
  9.00000E-004	  9.21347E-001	  9.19676E-001	  0.00000E+000	  0.00000E+000
  1.00000E-003	  9.14686E-001	  9.14925E-001	  0.00000E+000	  0.00000E+000
  1.10000E-003	  9.17628E-001	  9.20570E-001	  0.00000E+000	  0.00000E+000
  1.20000E-003	  9.14522E-001	  9.17417E-001	  0.00000E+000	  0.00000E+000
  1.30000E-003	  9.12571E-001	  9.10142E-001	  0.00000E+000	  0.00000E+000
  1.40000E-003	  9.16347E-001	  9.12785E-001	  0.00000E+000	  0.00000E+000
  1.50000E-003	  9.16653E-001	  9.18814E-001	  0.00000E+000	  0.00000E+000
  1.60000E-003	  9.13864E-001	  9.11765E-001	  0.00000E+000	  0.00000E+000
  1.80000E-003	  9.13328E-001	  9.17917E-001	  0.00000E+000	  0.00000E+000
  2.00000E-003	  9.16994E-001	  9.17105E-001	  0.00000E+000	  0.00000E+000
  2.20000E-003	  9.12869E-001	  9.13499E-001	  0.00000E+000	  0.00000E+000
  2.40000E-003	  9.13474E-001	  9.10457E-001	  0.00000E+000	  0.00000E+000
  2.60000E-003	  9.12913E-001	  9.14229E-001	  0.00000E+000	  0.00000E+000
  2.80000E-003	  9.10723E-001	  9.09742E-001	  0.00000E+000	  0.00000E+000
  3.00000E-003	  9.12914E-001	  9.11596E-001	  0.00000E+000	  0.00000E+000
  3.20000E-003	  9.12476E-001	  9.13370E-001	  0.00000E+000	  0.00000E+000
  3.60000E-003	  9.11161E-001	  9.12085E-001	  0.00000E+000	  0.00000E+000
  4.00000E-003	  9.13516E-001	  9.14479E-001	  0.00000E+000	  0.00000E+000
  4.40000E-003	  9.11740E-001	  9.11548E-001	  0.00000E+000	  0.00000E+000
  4.80000E-003	  9.09790E-001	  9.11858E-001	  0.00000E+000	  0.00000E+000
  5.20000E-003	  9.08943E-001	  9.07687E-001	  0.00000E+000	  0.00000E+000
  5.60000E-003	  9.10679E-001	  9.11499E-001	  0.00000E+000	  0.00000E+000
  6.00000E-003	  9.07998E-001	  9.08271E-001	  0.00000E+000	  0.00000E+000
  6.40000E-003	  9.08171E-001	  9.08403E-001	  0.00000E+000	  0.00000E+000
  7.20000E-003	  9.08172E-001	  9.06617E-001	  0.00000E+000	  0.00000E+000
  8.00000E-003	  9.07564E-001	  9.08418E-001	  0.00000E+000	  0.00000E+000
  8.80000E-003	  9.07593E-001	  9.06778E-001	  0.00000E+000	  0.00000E+000
  9.60000E-003	  9.05009E-001	  9.06572E-001	  0.00000E+000	  0.00000E+000
  1.04000E-002	  9.04451E-001	  9.04040E-001	  0.00000E+000	  0.00000E+000
  1.12000E-002	  9.04703E-001	  9.04995E-001	  0.00000E+000	  0.00000E+000
  1.20000E-002	  9.03314E-001	  9.02489E-001	  0.00000E+000	  0.00000E+000
  1.28000E-002	  9.02597E-001	  9.02551E-001	  0.00000E+000	  0.00000E+000
  1.44000E-002	  9.01186E-001	  9.00590E-001	  0.00000E+000	  0.00000E+000
  1.60000E-002	  8.99939E-001	  9.00118E-001	  0.00000E+000	  0.00000E+000
  1.76000E-002	  8.97053E-001	  8.98048E-001	  0.00000E+000	  0.00000E+000
  1.92000E-002	  8.96053E-001	  8.95804E-001	  0.00000E+000	  0.00000E+000
  2.08000E-002	  8.94226E-001	  8.94850E-001	  0.00000E+000	  0.00000E+000
  2.24000E-002	  8.93167E-001	  8.93701E-001	  0.00000E+000	  0.00000E+000
  2.40000E-002	  8.90949E-001	  8.91033E-001	  0.00000E+000	  0.00000E+000
  2.56000E-002	  8.89200E-001	  8.89549E-001	  0.00000E+000	  0.00000E+000
  2.88000E-002	  8.86066E-001	  8.86292E-001	  0.00000E+000	  0.00000E+000
  3.20000E-002	  8.83135E-001	  8.83007E-001	  0.00000E+000	  0.00000E+000
  3.52000E-002	  8.79778E-001	  8.79222E-001	  0.00000E+000	  0.00000E+000
  3.84000E-002	  8.76175E-001	  8.76338E-001	  0.00000E+000	  0.00000E+000
  4.16000E-002	  8.73496E-001	  8.73452E-001	  0.00000E+000	  0.00000E+000
  4.48000E-002	  8.69972E-001	  8.70036E-001	  0.00000E+000	  0.00000E+000
  4.80000E-002	  8.67827E-001	  8.66997E-001	  0.00000E+000	  0.00000E+000
  5.12000E-002	  8.64244E-001	  8.64215E-001	  0.00000E+000	  0.00000E+000
  5.76000E-002	  8.57613E-001	  8.57420E-001	  0.00000E+000	  0.00000E+000
  6.40000E-002	  8.51691E-001	  8.51614E-001	  0.00000E+000	  0.00000E+000
  7.04000E-002	  8.45066E-001	  8.44943E-001	  0.00000E+000	  0.00000E+000
  7.68000E-002	  8.39051E-001	  8.38783E-001	  0.00000E+000	  0.00000E+000
  8.32000E-002	  8.33188E-001	  8.33410E-001	  0.00000E+000	  0.00000E+000
  8.96000E-002	  8.27740E-001	  8.27798E-001	  0.00000E+000	  0.00000E+000
  9.60000E-002	  8.21257E-001	  8.21305E-001	  0.00000E+000	  0.00000E+000
  1.02400E-001	  8.15790E-001	  8.16237E-001	  0.00000E+000	  0.00000E+000
  1.15200E-001	  8.04500E-001	  8.04532E-001	  0.00000E+000	  0.00000E+000
  1.28000E-001	  7.93061E-001	  7.93271E-001	  0.00000E+000	  0.00000E+000
  1.40800E-001	  7.81852E-001	  7.82154E-001	  0.00000E+000	  0.00000E+000
  1.53600E-001	  7.71146E-001	  7.71045E-001	  0.00000E+000	  0.00000E+000
  1.66400E-001	  7.59961E-001	  7.59756E-001	  0.00000E+000	  0.00000E+000
  1.79200E-001	  7.49093E-001	  7.49159E-001	  0.00000E+000	  0.00000E+000
  1.92000E-001	  7.38691E-001	  7.38725E-001	  0.00000E+000	  0.00000E+000
  2.04800E-001	  7.28371E-001	  7.28354E-001	  0.00000E+000	  0.00000E+000
  2.30400E-001	  7.08623E-001	  7.08798E-001	  0.00000E+000	  0.00000E+000
  2.56000E-001	  6.89380E-001	  6.89747E-001	  0.00000E+000	  0.00000E+000
  2.81600E-001	  6.71105E-001	  6.71587E-001	  0.00000E+000	  0.00000E+000
  3.07200E-001	  6.53272E-001	  6.53662E-001	  0.00000E+000	  0.00000E+000
  3.32800E-001	  6.35648E-001	  6.35871E-001	  0.00000E+000	  0.00000E+000
  3.58400E-001	  6.18850E-001	  6.19129E-001	  0.00000E+000	  0.00000E+000
  3.84000E-001	  6.02761E-001	  6.02885E-001	  0.00000E+000	  0.00000E+000
  4.09600E-001	  5.86946E-001	  5.87117E-001	  0.00000E+000	  0.00000E+000
  4.60800E-001	  5.56469E-001	  5.56731E-001	  0.00000E+000	  0.00000E+000
  5.12000E-001	  5.27606E-001	  5.27756E-001	  0.00000E+000	  0.00000E+000
  5.63200E-001	  4.99956E-001	  5.00281E-001	  0.00000E+000	  0.00000E+000
  6.14400E-001	  4.73785E-001	  4.74314E-001	  0.00000E+000	  0.00000E+000
  6.65600E-001	  4.48947E-001	  4.49424E-001	  0.00000E+000	  0.00000E+000
  7.16800E-001	  4.25514E-001	  4.25596E-001	  0.00000E+000	  0.00000E+000
  7.68000E-001	  4.03138E-001	  4.03411E-001	  0.00000E+000	  0.00000E+000
  8.19200E-001	  3.82620E-001	  3.83137E-001	  0.00000E+000	  0.00000E+000
  9.21600E-001	  3.44337E-001	  3.44623E-001	  0.00000E+000	  0.00000E+000
  1.02400E+000	  3.09439E-001	  3.09349E-001	  0.00000E+000	  0.00000E+000
  1.12640E+000	  2.78018E-001	  2.77990E-001	  0.00000E+000	  0.00000E+000
  1.22880E+000	  2.49704E-001	  2.49909E-001	  0.00000E+000	  0.00000E+000
  1.33120E+000	  2.25033E-001	  2.25479E-001	  0.00000E+000	  0.00000E+000
  1.43360E+000	  2.03621E-001	  2.04138E-001	  0.00000E+000	  0.00000E+000
  1.53600E+000	  1.84492E-001	  1.84838E-001	  0.00000E+000	  0.00000E+000
  1.63840E+000	  1.67794E-001	  1.68161E-001	  0.00000E+000	  0.00000E+000
  1.84320E+000	  1.38650E-001	  1.38818E-001	  0.00000E+000	  0.00000E+000
  2.04800E+000	  1.14233E-001	  1.14842E-001	  0.00000E+000	  0.00000E+000
  2.25280E+000	  9.52594E-002	  9.59969E-002	  0.00000E+000	  0.00000E+000
  2.45760E+000	  7.96628E-002	  8.04258E-002	  0.00000E+000	  0.00000E+000
  2.66240E+000	  6.66512E-002	  6.73145E-002	  0.00000E+000	  0.00000E+000
  2.86720E+000	  5.48791E-002	  5.54320E-002	  0.00000E+000	  0.00000E+000
  3.07200E+000	  4.47305E-002	  4.52626E-002	  0.00000E+000	  0.00000E+000
  3.27680E+000	  3.64887E-002	  3.68973E-002	  0.00000E+000	  0.00000E+000
  3.68640E+000	  2.25194E-002	  2.27498E-002	  0.00000E+000	  0.00000E+000
  4.09600E+000	  1.31261E-002	  1.41018E-002	  0.00000E+000	  0.00000E+000
  4.50560E+000	  8.44735E-003	  9.22871E-003	  0.00000E+000	  0.00000E+000
  4.91520E+000	  3.94958E-003	  4.31164E-003	  0.00000E+000	  0.00000E+000
  5.32480E+000	 -2.04631E-003	 -2.13274E-003	  0.00000E+000	  0.00000E+000
  5.73440E+000	 -1.06079E-002	 -1.07995E-002	  0.00000E+000	  0.00000E+000
  6.14400E+000	 -1.37667E-002	 -1.36831E-002	  0.00000E+000	  0.00000E+000
  6.55360E+000	 -1.52826E-002	 -1.50975E-002	  0.00000E+000	  0.00000E+000
  7.37280E+000	 -1.36060E-002	 -1.34392E-002	  0.00000E+000	  0.00000E+000
  8.19200E+000	 -6.60162E-003	 -6.41121E-003	  0.00000E+000	  0.00000E+000
  9.01120E+000	 -4.79554E-004	 -1.00585E-004	  0.00000E+000	  0.00000E+000
  9.83040E+000	  9.96151E-003	  1.01945E-002	  0.00000E+000	  0.00000E+000
  1.06496E+001	  1.16764E-002	  1.20455E-002	  0.00000E+000	  0.00000E+000
  1.14688E+001	  3.86393E-003	  3.39632E-003	  0.00000E+000	  0.00000E+000
  1.22880E+001	  2.02737E-003	  1.31874E-003	  0.00000E+000	  0.00000E+000
  1.31072E+001	  5.65016E-003	  5.18460E-003	  0.00000E+000	  0.00000E+000
  1.47456E+001	  3.66230E-003	  3.36682E-003	  0.00000E+000	  0.00000E+000
  1.63840E+001	  5.30900E-003	  5.46685E-003	  0.00000E+000	  0.00000E+000
  1.80224E+001	  7.05002E-003	  6.90761E-003	  0.00000E+000	  0.00000E+000
  1.96608E+001	  6.50210E-003	  5.90415E-003	  0.00000E+000	  0.00000E+000
  2.12992E+001	  8.27058E-003	  7.81339E-003	  0.00000E+000	  0.00000E+000
  2.29376E+001	  7.79131E-003	  7.89659E-003	  0.00000E+000	  0.00000E+000
  2.45760E+001	  1.09423E-003	  9.52288E-004	  0.00000E+000	  0.00000E+000
  2.62144E+001	 -4.92893E-004	 -5.22878E-004	  0.00000E+000	  0.00000E+000
  2.94912E+001	  7.14838E-003	  6.94583E-003	  0.00000E+000	  0.00000E+000
  3.27680E+001	  9.01853E-003	  9.00139E-003	  0.00000E+000	  0.00000E+000
  3.60448E+001	  2.62289E-003	  2.98959E-003	  0.00000E+000	  0.00000E+000
  3.93216E+001	 -1.30676E-002	 -1.29931E-002	  0.00000E+000	  0.00000E+000
  4.25984E+001	 -1.01257E-002	 -1.05381E-002	  0.00000E+000	  0.00000E+000
  4.58752E+001	  2.60890E-004	  2.58905E-004	  0.00000E+000	  0.00000E+000
  4.91520E+001	 -1.29092E-003	 -1.42282E-003	  0.00000E+000	  0.00000E+000
  5.24288E+001	  4.24745E-003	  4.17011E-003	  0.00000E+000	  0.00000E+000
  5.89824E+001	  1.33486E-003	  1.21308E-003	  0.00000E+000	  0.00000E+000
  6.55360E+001	  6.44435E-003	  6.74453E-003	  0.00000E+000	  0.00000E+000
  7.20896E+001	  1.16051E-003	  7.44644E-004	  0.00000E+000	  0.00000E+000
  7.86432E+001	  2.13870E-003	  1.71174E-003	  0.00000E+000	  0.00000E+000
  8.51968E+001	 -5.45272E-003	 -5.73243E-003	  0.00000E+000	  0.00000E+000
  9.17504E+001	 -2.85739E-003	 -2.96235E-003	  0.00000E+000	  0.00000E+000
  9.83040E+001	 -2.56899E-003	 -2.45985E-003	  0.00000E+000	  0.00000E+000
  1.04858E+002	  3.70986E-004	  4.80512E-004	  0.00000E+000	  0.00000E+000
  1.17965E+002	 -2.12682E-003	 -2.26884E-003	  0.00000E+000	  0.00000E+000
  1.31072E+002	 -7.57066E-004	 -1.02557E-003	  0.00000E+000	  0.00000E+000
  1.44179E+002	 -1.68188E-003	 -1.59623E-003	  0.00000E+000	  0.00000E+000
  1.57286E+002	 -4.65290E-003	 -4.63292E-003	  0.00000E+000	  0.00000E+000
  1.70394E+002	 -9.20554E-004	 -8.98709E-004	  0.00000E+000	  0.00000E+000
  1.83501E+002	  4.52176E-003	  4.62727E-003	  0.00000E+000	  0.00000E+000
  1.96608E+002	 -3.10579E-003	 -2.92795E-003	  0.00000E+000	  0.00000E+000
  2.09715E+002	  5.96400E-003	  6.16923E-003	  0.00000E+000	  0.00000E+000
  2.35930E+002	  1.96573E-005	 -1.96450E-004	  0.00000E+000	  0.00000E+000
  2.62144E+002	 -3.28451E-003	 -3.35449E-003	  0.00000E+000	  0.00000E+000
  2.88358E+002	 -2.03369E-003	 -2.05850E-003	  0.00000E+000	  0.00000E+000
  3.14573E+002	 -7.74250E-003	 -7.81866E-003	  0.00000E+000	  0.00000E+000
  3.40787E+002	  2.50143E-003	  2.53346E-003	  0.00000E+000	  0.00000E+000
  3.67002E+002	 -5.30528E-003	 -4.98183E-003	  0.00000E+000	  0.00000E+000
  3.93216E+002	  2.05580E-003	  1.72876E-003	  0.00000E+000	  0.00000E+000
  4.19430E+002	 -2.04734E-004	 -2.19592E-004	  0.00000E+000	  0.00000E+000
  4.71859E+002	  3.07714E-004	  3.28735E-004	  0.00000E+000	  0.00000E+000
  5.24288E+002	 -1.71312E-003	 -1.72411E-003	  0.00000E+000	  0.00000E+000
  5.76717E+002	  2.97904E-003	  2.95728E-003	  0.00000E+000	  0.00000E+000
  6.29146E+002	  4.14059E-003	  4.22753E-003	  0.00000E+000	  0.00000E+000
  6.81574E+002	  2.44631E-003	  2.44969E-003	  0.00000E+000	  0.00000E+000
  7.34003E+002	 -1.31109E-003	 -1.31407E-003	  0.00000E+000	  0.00000E+000
  7.86432E+002	 -3.11643E-003	 -3.06541E-003	  0.00000E+000	  0.00000E+000
  8.38861E+002	 -2.02212E-003	 -2.04482E-003	  0.00000E+000	  0.00000E+000
  9.43718E+002	  1.34482E-003	  1.39950E-003	  0.00000E+000	  0.00000E+000
  1.04858E+003	  1.33879E-003	  1.36257E-003	  0.00000E+000	  0.00000E+000
  1.15343E+003	  3.09112E-004	  3.07570E-004	  0.00000E+000	  0.00000E+000
  1.25829E+003	 -1.31506E-003	 -1.26612E-003	  0.00000E+000	  0.00000E+000
  1.36315E+003	 -9.74193E-004	 -9.54798E-004	  0.00000E+000	  0.00000E+000
  1.46801E+003	 -7.16726E-004	 -6.54917E-004	  0.00000E+000	  0.00000E+000
  1.57286E+003	  1.87676E-004	  1.60075E-004	  0.00000E+000	  0.00000E+000
  1.67772E+003	 -1.58234E-003	 -1.68441E-003	  0.00000E+000	  0.00000E+000
  1.88744E+003	 -8.52945E-004	 -7.56740E-004	  0.00000E+000	  0.00000E+000
  2.09715E+003	  1.46307E-003	  1.48952E-003	  0.00000E+000	  0.00000E+000
  2.30687E+003	 -8.97494E-004	 -9.27923E-004	  0.00000E+000	  0.00000E+000
  2.51658E+003	 -3.14828E-004	 -2.51304E-004	  0.00000E+000	  0.00000E+000
  2.72630E+003	  3.82681E-004	  3.83954E-004	  0.00000E+000	  0.00000E+000
  2.93601E+003	 -3.72040E-004	 -3.19448E-004	  0.00000E+000	  0.00000E+000
  3.14573E+003	  4.59919E-004	  4.86915E-004	  0.00000E+000	  0.00000E+000

"Count Rate"
       0.03906	     409.28708	     420.43317	     409.28708	     420.43317
       0.07813	     522.61432	     532.71228	     522.61432	     532.71228
       0.11719	     419.71738	     417.44214	     419.71738	     417.44214
       0.15625	     514.97058	     523.94366	     514.97058	     523.94366
       0.19531	     454.30609	     466.11688	     454.30609	     466.11688
       0.23438	     460.59494	     472.35458	     460.59494	     472.35458
       0.27344	     383.05792	     388.42645	     383.05792	     388.42645
       0.31250	     343.22849	     350.18204	     343.22849	     350.18204
       0.35156	     384.71960	     402.76813	     384.71960	     402.76813
       0.39063	     295.32068	     303.91034	     295.32068	     303.91034
       0.42969	     240.28040	     241.32854	     240.28040	     241.32854
       0.46875	     341.51569	     340.10962	     341.51569	     340.10962
       0.50781	     490.86328	     501.16574	     490.86328	     501.16574
       0.54688	     228.69969	     227.62599	     228.69969	     227.62599
       0.58594	     341.69461	     339.62390	     341.69461	     339.62390
       0.62500	     395.09879	     404.76215	     395.09879	     404.76215
       0.66406	     329.65375	     336.47946	     329.65375	     336.47946
       0.70313	     352.20163	     357.31451	     352.20163	     357.31451
       0.74219	     359.46191	     366.49216	     359.46191	     366.49216
       0.78125	     395.09879	     402.15457	     395.09879	     402.15457
       0.82031	     418.92487	     422.06931	     418.92487	     422.06931
       0.85938	     429.86646	     448.11948	     429.86646	     448.11948
       0.89844	     437.94482	     447.40369	     437.94482	     447.40369
       0.93750	     358.64386	     366.61996	     358.64386	     366.61996
       0.97656	     427.15662	     434.97934	     427.15662	     434.97934
       1.01563	     350.46323	     352.17606	     350.46323	     352.17606
       1.05469	     329.32141	     337.09302	     329.32141	     337.09302
       1.09375	     459.24002	     469.97711	     459.24002	     469.97711
       1.13281	     422.52945	     428.43484	     422.52945	     428.43484
       1.17188	     418.08124	     418.13239	     418.08124	     418.13239
       1.21094	     372.21860	     376.87134	     372.21860	     376.87134
       1.25000	     415.70374	     423.98663	     415.70374	     423.98663
       1.28906	     544.11407	     551.01648	     544.11407	     551.01648
       1.32813	     533.86267	     542.96362	     533.86267	     542.96362
       1.36719	     473.17267	     479.76828	     473.17267	     479.76828
       1.40625	     369.22754	     368.76740	     369.22754	     368.76740
       1.44531	     416.08722	     424.90695	     416.08722	     424.90695
       1.48438	     492.83173	     503.67105	     492.83173	     503.67105
       1.52344	     495.28592	     501.24243	     495.28592	     501.24243
       1.56250	     267.32761	     267.40430	     267.32761	     267.40430
       1.60156	     439.60651	     445.74200	     439.60651	     445.74200
       1.64063	     274.05106	     278.85718	     274.05106	     278.85718
       1.67969	     323.28821	     330.19061	     323.28821	     330.19061
       1.71875	     336.35165	     347.03760	     336.35165	     347.03760
       1.75781	     409.18481	     414.91125	     409.18481	     414.91125
       1.79688	     276.47968	     285.27386	     276.47968	     285.27386
       1.83594	     547.74420	     543.04034	     547.74420	     543.04034
       1.87500	     466.04016	     481.09766	     466.04016	     481.09766
       1.91406	     389.11670	     397.70636	     389.11670	     397.70636
       1.95313	     307.97510	     314.92862	     307.97510	     314.92862
       1.99219	     442.80206	     455.22641	     442.80206	     455.22641
       2.03125	     447.37811	     459.57236	     447.37811	     459.57236
       2.07031	     494.72351	     502.54623	     494.72351	     502.54623
       2.10938	     371.57947	     379.29996	     371.57947	     379.29996
       2.14844	     325.99805	     330.13950	     325.99805	     330.13950
       2.18750	     525.63092	     534.24615	     525.63092	     534.24615
       2.22656	     357.72354	     357.46790	     357.72354	     357.46790
       2.26563	     478.10660	     481.94128	     478.10660	     481.94128
       2.30469	     504.89816	     511.59604	     504.89816	     511.59604
       2.34375	     283.50992	     290.66797	     283.50992	     290.66797
       2.38281	     483.06610	     493.18964	     483.06610	     493.18964
       2.42188	     381.90753	     391.08517	     381.90753	     391.08517
       2.46094	     535.06421	     551.29767	     535.06421	     551.29767
       2.50000	     765.52789	     779.69055	     765.52789	     779.69055
       2.53906	     488.51135	     499.91309	     488.51135	     499.91309
       2.57813	     373.13892	     385.15421	     373.13892	     385.15421
       2.61719	     275.25259	     281.87378	     275.25259	     281.87378
       2.65625	     251.34981	     247.77078	     251.34981	     247.77078
       2.69531	     345.35034	     360.12659	     345.35034	     360.12659
       2.73438	     448.73303	     460.79947	     448.73303	     460.79947
       2.77344	     436.89670	     450.16464	     436.89670	     450.16464
       2.81250	     399.85379	     409.77280	     399.85379	     409.77280
       2.85156	     454.33167	     463.45816	     454.33167	     463.45816
       2.89063	     420.91888	     424.47235	     420.91888	     424.47235
       2.92969	     315.82339	     319.01895	     315.82339	     319.01895
       2.96875	     450.39471	     457.85956	     450.39471	     457.85956
       3.00781	     377.02472	     388.24750	     377.02472	     388.24750
       3.04688	     433.31766	     439.86215	     433.31766	     439.86215
       3.08594	     447.78714	     456.17230	     447.78714	     456.17230
       3.12500	     352.55951	     350.71887	     352.55951	     350.71887
       3.16406	     362.24844	     370.09674	     362.24844	     370.09674
       3.20313	     379.14658	     387.27606	     379.14658	     387.27606
       3.24219	     338.93365	     343.40744	     338.93365	     343.40744
       3.28125	     363.21991	     374.49384	     363.21991	     374.49384
       3.32031	     487.64215	     498.66043	     487.64215	     498.66043
       3.35938	     353.96558	     358.59274	     353.96558	     358.59274
       3.39844	     501.26801	     508.68170	     501.26801	     508.68170
       3.43750	     436.12976	     441.62610	     436.12976	     441.62610
       3.47656	     308.92099	     309.94357	     308.92099	     309.94357
       3.51563	     439.14636	     453.10455	     439.14636	     453.10455
       3.55469	     507.02002	     516.50446	     507.02002	     516.50446
       3.59375	     393.36041	     397.47629	     393.36041	     397.47629
       3.63281	     333.82077	     335.96817	     333.82077	     335.96817
       3.67188	     350.84671	     356.08740	     350.84671	     356.08740
       3.71094	     383.18576	     390.47162	     383.18576	     390.47162
       3.75000	     339.34268	     347.60001	     339.34268	     347.60001
       3.78906	     415.60150	     418.82260	     415.60150	     418.82260
       3.82813	     305.77655	     313.95718	     305.77655	     313.95718
       3.86719	     280.49329	     290.77020	     280.49329	     290.77020
       3.90625	     371.63062	     374.31488	     371.63062	     374.31488
       3.94531	     545.54565	     559.32489	     545.54565	     559.32489
       3.98438	     266.30502	     268.75922	     266.30502	     268.75922
       4.02344	     300.30576	     304.85623	     300.30576	     304.85623
       4.06250	     391.13629	     399.93048	     391.13629	     399.93048
       4.10156	     442.57199	     448.86087	     442.57199	     448.86087
       4.14063	     431.45145	     440.62909	     431.45145	     440.62909
       4.17969	     265.05237	     266.53510	     265.05237	     266.53510
       4.21875	     315.46548	     330.75302	     315.46548	     330.75302
       4.25781	     342.23148	     349.41510	     342.23148	     349.41510
       4.29688	     410.84650	     423.93552	     410.84650	     423.93552
       4.33594	     348.31583	     358.51605	     348.31583	     358.51605
       4.37500	     510.29227	     528.03400	     510.29227	     528.03400
       4.41406	     403.43280	     415.83157	     403.43280	     415.83157
       4.45313	     393.48822	     404.17416	     393.48822	     404.17416
       4.49219	     359.35968	     364.90717	     359.35968	     364.90717
       4.53125	     500.78229	     512.64417	     500.78229	     512.64417
       4.57031	     276.04507	     281.31137	     276.04507	     281.31137
       4.60938	     470.99969	     476.06143	     470.99969	     476.06143
       4.64844	     490.12189	     500.93567	     490.12189	     500.93567
       4.68750	     344.45560	     352.58508	     344.45560	     352.58508
       4.72656	     354.60468	     354.91144	     354.60468	     354.91144
       4.76563	     278.11581	     281.54144	     278.11581	     281.54144
       4.80469	     345.17139	     351.40912	     345.17139	     351.40912
       4.84375	     389.90921	     402.71701	     389.90921	     402.71701
       4.88281	     345.65710	     350.51437	     345.65710	     350.51437
       4.92188	     365.46957	     377.66382	     365.46957	     377.66382
       4.96094	     352.91742	     355.85733	     352.91742	     355.85733
       5.00000	     479.07806	     495.43930	     479.07806	     495.43930
       5.03906	     367.54028	     374.05923	     367.54028	     374.05923
       5.07813	     497.33109	     504.94928	     497.33109	     504.94928
       5.11719	     433.67557	     445.63974	     433.67557	     445.63974
       5.15625	     340.10962	     344.40445	     340.10962	     344.40445
       5.19531	     293.58231	     295.93423	     293.58231	     295.93423
       5.23438	     529.10773	     535.65222	     529.10773	     535.65222
       5.27344	     397.70636	     408.98029	     397.70636	     408.98029
       5.31250	     440.04111	     439.63208	     440.04111	     439.63208
       5.35156	     360.51007	     368.15384	     360.51007	     368.15384
       5.39063	     236.80363	     237.57056	     236.80363	     237.57056
       5.42969	     402.07788	     418.03012	     402.07788	     418.03012
       5.46875	     421.60913	     423.60318	     421.60913	     423.60318
       5.50781	     331.90344	     337.73212	     331.90344	     337.73212
       5.54688	     299.02753	     301.94189	     299.02753	     301.94189
       5.58594	     354.63025	     365.98087	     354.63025	     365.98087
       5.62500	     350.56549	     359.12958	     350.56549	     359.12958
       5.66406	     465.40106	     478.56677	     465.40106	     478.56677
       5.70313	     479.23145	     489.76401	     479.23145	     489.76401
       5.74219	     433.54773	     437.51022	     433.54773	     437.51022
       5.78125	     367.13126	     378.68640	     367.13126	     378.68640
       5.82031	     431.98831	     443.08328	     431.98831	     443.08328
       5.85938	     397.68079	     402.87039	     397.68079	     402.87039
       5.89844	     463.66269	     473.76065	     463.66269	     473.76065
       5.93750	     387.04599	     390.57388	     387.04599	     390.57388
       5.97656	     420.58655	     426.97766	     420.58655	     426.97766
       6.01563	     382.90454	     388.98889	     382.90454	     388.98889
       6.05469	     663.70459	     678.17407	     663.70459	     678.17407
       6.09375	     464.76196	     472.32904	     464.76196	     472.32904
       6.13281	     239.28339	     239.25781	     239.28339	     239.25781
       6.17188	     258.22665	     260.04172	     258.22665	     260.04172
       6.21094	     379.24881	     385.53769	     379.24881	     385.53769
       6.25000	     411.15326	     419.23163	     411.15326	     419.23163
       6.28906	     449.62778	     452.74664	     449.62778	     452.74664
       6.32813	     424.34454	     431.55371	     424.34454	     431.55371
       6.36719	     351.28131	     357.39120	     351.28131	     357.39120
       6.40625	     375.31189	     380.93607	     375.31189	     380.93607
       6.44531	     268.81033	     279.01056	     268.81033	     279.01056
       6.48438	     444.71942	     454.86850	     444.71942	     454.86850
       6.52344	     446.53448	     450.29248	     446.53448	     450.29248
       6.56250	     413.47964	     420.20309	     413.47964	     420.20309
       6.60156	     348.36694	     356.95660	     348.36694	     356.95660
       6.64063	     350.46323	     360.89352	     350.46323	     360.89352
       6.67969	     570.98230	     586.65332	     570.98230	     586.65332
       6.71875	     437.81702	     449.14206	     437.81702	     449.14206
       6.75781	     359.12958	     360.63788	     359.12958	     360.63788
       6.79688	     287.72803	     292.45746	     287.72803	     292.45746
       6.83594	     285.96408	     294.83496	     285.96408	     294.83496
       6.87500	     388.32422	     389.93475	     388.32422	     389.93475
       6.91406	     314.31509	     326.10031	     314.31509	     326.10031
       6.95313	     268.27347	     274.61346	     268.27347	     274.61346
       6.99219	     355.32050	     362.29959	     355.32050	     362.29959
       7.03125	     301.89075	     306.72244	     301.89075	     306.72244
       7.07031	     499.14615	     505.92075	     499.14615	     505.92075
       7.10938	     372.26971	     378.43076	     372.26971	     378.43076
       7.14844	     393.82056	     399.11240	     393.82056	     399.11240
       7.18750	     363.16876	     369.45764	     363.16876	     369.45764
       7.22656	     346.06613	     358.41379	     346.06613	     358.41379
       7.26563	     660.50903	     670.50476	     660.50903	     670.50476
       7.30469	     294.80939	     300.48471	     294.80939	     300.48471
       7.34375	     290.69351	     296.75229	     290.69351	     296.75229
       7.38281	     383.39026	     387.37833	     383.39026	     387.37833
       7.42188	     345.91275	     355.39719	     345.91275	     355.39719
       7.46094	     368.81851	     381.37067	     368.81851	     381.37067
       7.50000	     309.22775	     314.85193	     309.22775	     314.85193
       7.53906	     417.92786	     426.05734	     417.92786	     426.05734
       7.57813	     294.32367	     299.71777	     294.32367	     299.71777
       7.61719	     344.81348	     354.73251	     344.81348	     354.73251
       7.65625	     358.31152	     369.04861	     358.31152	     369.04861
       7.69531	     369.86667	     384.59180	     369.86667	     384.59180
       7.73438	     314.31509	     319.22345	     314.31509	     319.22345
       7.77344	     448.45181	     447.19916	     448.45181	     447.19916
       7.81250	     355.37161	     359.18073	     355.37161	     359.18073
       7.85156	     517.91046	     532.68671	     517.91046	     532.68671
       7.89063	     473.83734	     479.51263	     473.83734	     479.51263
       7.92969	     411.51117	     415.34586	     411.51117	     415.34586
       7.96875	     515.71191	     522.30756	     515.71191	     522.30756
       8.00781	     354.86032	     361.53265	     354.86032	     361.53265
       8.04688	     352.15048	     352.09937	     352.15048	     352.09937
       8.08594	     387.65952	     390.80396	     387.65952	     390.80396
       8.12500	     347.85565	     351.71588	     347.85565	     351.71588
       8.16406	     430.65897	     438.60950	     430.65897	     438.60950
       8.20313	     441.83063	     446.30441	     441.83063	     446.30441
       8.24219	     417.13535	     426.61978	     417.13535	     426.61978
       8.28125	     432.78082	     442.21408	     432.78082	     442.21408
       8.32031	     453.94818	     464.53186	     453.94818	     464.53186
       8.35938	     414.55334	     423.06631	     414.55334	     423.06631
       8.39844	     397.68079	     399.67484	     397.68079	     399.67484
       8.43750	     423.88437	     430.01984	     423.88437	     430.01984
       8.47656	     297.46811	     299.99899	     297.46811	     299.99899
       8.51563	     378.71198	     384.97525	     378.71198	     384.97525
       8.55469	     322.85361	     327.86426	     322.85361	     327.86426
       8.59375	     517.78265	     522.30756	     517.78265	     522.30756
       8.63281	     369.63660	     373.72690	     369.63660	     373.72690
       8.67188	     309.66235	     313.57370	     309.66235	     313.57370
       8.71094	     458.60092	     467.08832	     458.60092	     467.08832
       8.75000	     339.31714	     347.83011	     339.31714	     347.83011
       8.78906	     463.25366	     468.16202	     463.25366	     468.16202
       8.82813	     343.73978	     351.76703	     343.73978	     351.76703
       8.86719	     617.94421	     630.13849	     617.94421	     630.13849
       8.90625	     411.15326	     420.04971	     411.15326	     420.04971
       8.94531	     381.03833	     378.25180	     381.03833	     378.25180
       8.98438	     479.58936	     487.97449	     479.58936	     487.97449
       9.02344	     397.52740	     408.26450	     397.52740	     408.26450
       9.06250	     372.85770	     382.34213	     372.85770	     382.34213
       9.10156	     291.74167	     289.67093	     291.74167	     289.67093
       9.14063	     334.30649	     340.21188	     334.30649	     340.21188
       9.17969	     296.26657	     303.57800	     296.26657	     303.57800
       9.21875	     317.07605	     324.94989	     317.07605	     324.94989
       9.25781	     357.41678	     359.79425	     357.41678	     359.79425
       9.29688	     499.60632	     502.44397	     499.60632	     502.44397
       9.33594	     320.68063	     334.43433	     320.68063	     334.43433
       9.37500	     349.23615	     362.06949	     349.23615	     362.06949
       9.41406	     372.85770	     378.63528	     372.85770	     378.63528
       9.45313	     657.85034	     666.28662	     657.85034	     666.28662
       9.49219	     436.00192	     448.65634	     436.00192	     448.65634
       9.53125	     291.99731	     301.14938	     291.99731	     301.14938
       9.57031	     421.43018	     429.96872	     421.43018	     429.96872
       9.60938	     361.73715	     365.29062	     361.73715	     365.29062
       9.64844	     527.67609	     533.07019	     527.67609	     533.07019
       9.68750	     355.88290	     362.12064	     355.88290	     362.12064
       9.72656	     276.24960	     278.32031	     276.24960	     278.32031
       9.76563	     416.85416	     427.84686	     416.85416	     427.84686
       9.80469	     418.49026	     421.30237	     418.49026	     421.30237
       9.84375	     246.26248	     252.06561	     246.26248	     252.06561
       9.88281	     396.35144	     408.26450	     396.35144	     408.26450

Monitor Diode	 152188.03

"Cumulant 1.Order"
FluctuationFreq. [1/ms]	 5.2457E-001
DiffCoefficient [µm²/s]	 1.8146E+000
Hydrodyn. Radius [nm]	 1.3432E+002

"Cumulant 2.Order"
FluctuationFreq. [1/ms]	 5.5239E-001
DiffCoefficient [µm²/s]	 1.9108E+000
Hydrodyn. Radius [nm]	 1.2756E+002
Expansion Parameter µ2	 4.3212E-002

"Cumulant 3.Order"
FluctuationFreq. [1/ms]	 5.5262E-001
DiffCoefficient [µm²/s]	 1.9116E+000
Hydrodyn. Radius [nm]	 1.2750E+002
Expansion Parameter µ2	 4.4127E-002
Expansion Parameter µ3	 1.0887E-003

"StandardDeviation"
  2.50000E-005	  1.91142E-002
  5.00000E-005	  1.91145E-002
  7.50000E-005	  1.91147E-002
  1.00000E-004	  1.91153E-002
  1.25000E-004	  1.91155E-002
  1.50000E-004	  1.91157E-002
  1.75000E-004	  1.91162E-002
  2.00000E-004	  1.91167E-002
  2.25000E-004	  1.91158E-002
  2.50000E-004	  1.91124E-002
  2.75000E-004	  1.91088E-002
  3.00000E-004	  1.91137E-002
  3.25000E-004	  1.91094E-002
  3.50000E-004	  1.91051E-002
  3.75000E-004	  1.91086E-002
  4.00000E-004	  1.83442E-002
  4.50000E-004	  1.83435E-002
  5.00000E-004	  1.83455E-002
  5.50000E-004	  1.83433E-002
  6.00000E-004	  1.83437E-002
  6.50000E-004	  1.83418E-002
  7.00000E-004	  1.83417E-002
  7.50000E-004	  1.83417E-002
  8.00000E-004	  1.79469E-002
  9.00000E-004	  1.79487E-002
  1.00000E-003	  1.79469E-002
  1.10000E-003	  1.79476E-002
  1.20000E-003	  1.79468E-002
  1.30000E-003	  1.79463E-002
  1.40000E-003	  1.79472E-002
  1.50000E-003	  1.79473E-002
  1.60000E-003	  1.77454E-002
  1.80000E-003	  1.77447E-002
  2.00000E-003	  1.77453E-002
  2.20000E-003	  1.77446E-002
  2.40000E-003	  1.77446E-002
  2.60000E-003	  1.77445E-002
  2.80000E-003	  1.77442E-002
  3.00000E-003	  1.77444E-002
  3.20000E-003	  1.76426E-002
  3.60000E-003	  1.76412E-002
  4.00000E-003	  1.76412E-002
  4.40000E-003	  1.76410E-002
  4.80000E-003	  1.76408E-002
  5.20000E-003	  1.76407E-002
  5.60000E-003	  1.76407E-002
  6.00000E-003	  1.76404E-002
  6.40000E-003	  1.75887E-002
  7.20000E-003	  1.75860E-002
  8.00000E-003	  1.75857E-002
  8.80000E-003	  1.75854E-002
  9.60000E-003	  1.75854E-002
  1.04000E-002	  1.75850E-002
  1.12000E-002	  1.75846E-002
  1.20000E-002	  1.75843E-002
  1.28000E-002	  1.75570E-002
  1.44000E-002	  1.75511E-002
  1.60000E-002	  1.75505E-002
  1.76000E-002	  1.75500E-002
  1.92000E-002	  1.75492E-002
  2.08000E-002	  1.75485E-002
  2.24000E-002	  1.75477E-002
  2.40000E-002	  1.75470E-002
  2.56000E-002	  1.75291E-002
  2.88000E-002	  1.75179E-002
  3.20000E-002	  1.75164E-002
  3.52000E-002	  1.75150E-002
  3.84000E-002	  1.75132E-002
  4.16000E-002	  1.75111E-002
  4.48000E-002	  1.75092E-002
  4.80000E-002	  1.75066E-002
  5.12000E-002	  1.74925E-002
  5.76000E-002	  1.74711E-002
  6.40000E-002	  1.74676E-002
  7.04000E-002	  1.74641E-002
  7.68000E-002	  1.74593E-002
  8.32000E-002	  1.74549E-002
  8.96000E-002	  1.74493E-002
  9.60000E-002	  1.74443E-002
  1.02400E-001	  1.74242E-002
  1.15200E-001	  1.73795E-002
  1.28000E-001	  1.73675E-002
  1.40800E-001	  1.73549E-002
  1.53600E-001	  1.73391E-002
  1.66400E-001	  1.73258E-002
  1.79200E-001	  1.73106E-002
  1.92000E-001	  1.72939E-002
  2.04800E-001	  1.72514E-002
  2.30400E-001	  1.71406E-002
  2.56000E-001	  1.70998E-002
  2.81600E-001	  1.70577E-002
  3.07200E-001	  1.70097E-002
  3.32800E-001	  1.69618E-002
  3.58400E-001	  1.69079E-002
  3.84000E-001	  1.68537E-002
  4.09600E-001	  1.67855E-002
  4.60800E-001	  1.66180E-002
  5.12000E-001	  1.64884E-002
  5.63200E-001	  1.63535E-002
  6.14400E-001	  1.62153E-002
  6.65600E-001	  1.60467E-002
  7.16800E-001	  1.58986E-002
  7.68000E-001	  1.57463E-002
  8.19200E-001	  1.55790E-002
  9.21600E-001	  1.52127E-002
  1.02400E+000	  1.48916E-002
  1.12640E+000	  1.45665E-002
  1.22880E+000	  1.42278E-002
  1.33120E+000	  1.39424E-002
  1.43360E+000	  1.36211E-002
  1.53600E+000	  1.33063E-002
  1.63840E+000	  1.29268E-002
  1.84320E+000	  1.23239E-002
  2.04800E+000	  1.18057E-002
  2.25280E+000	  1.13388E-002
  2.45760E+000	  1.09221E-002
  2.66240E+000	  8.79417E-003
  2.86720E+000	  8.79417E-003
  3.07200E+000	  8.79417E-003
  3.27680E+000	  8.81175E-003
  3.68640E+000	  8.81175E-003
  4.09600E+000	  8.81175E-003
  4.50560E+000	  8.81175E-003
  4.91520E+000	  8.81175E-003
  5.32480E+000	  8.81175E-003
  5.73440E+000	  8.81175E-003
  6.14400E+000	  8.81175E-003
  6.55360E+000	  8.58995E-003
  7.37280E+000	  8.58995E-003
  8.19200E+000	  8.58995E-003
  9.01120E+000	  8.58995E-003
  9.83040E+000	  8.58995E-003
  1.06496E+001	  8.58995E-003
  1.14688E+001	  8.58995E-003
  1.22880E+001	  8.58995E-003
  1.31072E+001	  8.05894E-003
  1.47456E+001	  8.05894E-003
  1.63840E+001	  8.05894E-003
  1.80224E+001	  8.05894E-003
  1.96608E+001	  8.05894E-003
  2.12992E+001	  8.05894E-003
  2.29376E+001	  8.05894E-003
  2.45760E+001	  8.05894E-003
  2.62144E+001	  7.08033E-003
  2.94912E+001	  7.08033E-003
  3.27680E+001	  7.08033E-003
  3.60448E+001	  7.08033E-003
  3.93216E+001	  7.08033E-003
  4.25984E+001	  7.08033E-003
  4.58752E+001	  7.08033E-003
  4.91520E+001	  7.08033E-003
  5.24288E+001	  5.88741E-003
  5.89824E+001	  5.88741E-003
  6.55360E+001	  5.88741E-003
  7.20896E+001	  5.88741E-003
  7.86432E+001	  5.88741E-003
  8.51968E+001	  5.88741E-003
  9.17504E+001	  5.88741E-003
  9.83040E+001	  5.88741E-003
  1.04858E+002	  4.51405E-003
  1.17965E+002	  4.51405E-003
  1.31072E+002	  4.51405E-003
  1.44179E+002	  4.51405E-003
  1.57286E+002	  4.51405E-003
  1.70394E+002	  4.51405E-003
  1.83501E+002	  4.51405E-003
  1.96608E+002	  4.51405E-003
  2.09715E+002	  3.31853E-003
  2.35930E+002	  3.31853E-003
  2.62144E+002	  3.31853E-003
  2.88358E+002	  3.31853E-003
  3.14573E+002	  3.31853E-003
  3.40787E+002	  3.31853E-003
  3.67002E+002	  3.31853E-003
  3.93216E+002	  3.31853E-003
  4.19430E+002	  2.39132E-003
  4.71859E+002	  2.39132E-003
  5.24288E+002	  2.39132E-003
  5.76717E+002	  2.39132E-003
  6.29146E+002	  2.39132E-003
  6.81574E+002	  2.39132E-003
  7.34003E+002	  2.39132E-003
  7.86432E+002	  2.39132E-003
  8.38861E+002	  1.70674E-003
  9.43718E+002	  1.70674E-003
  1.04858E+003	  1.70674E-003
  1.15343E+003	  1.70674E-003
  1.25829E+003	  1.70674E-003
  1.36315E+003	  1.70674E-003
  1.46801E+003	  1.70674E-003
  1.57286E+003	  1.70674E-003
  1.67772E+003	  1.21244E-003
  1.88744E+003	  1.21244E-003
  2.09715E+003	  1.21244E-003
  2.30687E+003	  1.21244E-003
  2.51658E+003	  1.21244E-003
  2.72630E+003	  1.21244E-003
  2.93601E+003	  1.21244E-003
  3.14573E+003	  1.21244E-003
