ALV-7004/USB
Date :	"08.06.2022"
Time :	"14:29:19"
Samplename : 	"Samplename needed."
SampMemo(0) : 	""
SampMemo(1) : 	""
SampMemo(2) : 	""
SampMemo(3) : 	""
SampMemo(4) : 	""
SampMemo(5) : 	""
SampMemo(6) : 	""
SampMemo(7) : 	""
SampMemo(8) : 	""
SampMemo(9) : 	""
Temperature [K] :	     297.92543
Viscosity [cp]  :	       0.89478
Refractive Index:	       1.33200
Wavelength [nm] :	     632.80000
Angle [°]       :	      70.00000
Duration [s]    :	        10
FloatDur [ms]   :	         9961
Stop TP [ms]   :	  16777216
Runs            :	         1
Mode            :	"C-CH0/1+1/0"
MeanCR0 [kHz]   :	     536.89656
MeanCR1 [kHz]   :	     547.04975
MeanCR2 [kHz]   :	       0.00000
MeanCR3 [kHz]   :	       0.00000

"Correlation"
  2.50000E-005	  8.53157E-001	  8.53184E-001	  0.00000E+000	  0.00000E+000
  5.00000E-005	  8.52794E-001	  8.51557E-001	  0.00000E+000	  0.00000E+000
  7.50000E-005	  8.51578E-001	  8.48016E-001	  0.00000E+000	  0.00000E+000
  1.00000E-004	  8.47565E-001	  8.48248E-001	  0.00000E+000	  0.00000E+000
  1.25000E-004	  8.48912E-001	  8.50504E-001	  0.00000E+000	  0.00000E+000
  1.50000E-004	  8.44461E-001	  8.46963E-001	  0.00000E+000	  0.00000E+000
  1.75000E-004	  8.49773E-001	  8.50518E-001	  0.00000E+000	  0.00000E+000
  2.00000E-004	  8.47777E-001	  8.47127E-001	  0.00000E+000	  0.00000E+000
  2.25000E-004	  8.55453E-001	  8.60293E-001	  0.00000E+000	  0.00000E+000
  2.50000E-004	  8.57340E-001	  8.56356E-001	  0.00000E+000	  0.00000E+000
  2.75000E-004	  8.47838E-001	  8.53881E-001	  0.00000E+000	  0.00000E+000
  3.00000E-004	  8.52036E-001	  8.48563E-001	  0.00000E+000	  0.00000E+000
  3.25000E-004	  8.45993E-001	  8.50573E-001	  0.00000E+000	  0.00000E+000
  3.50000E-004	  8.57135E-001	  8.54442E-001	  0.00000E+000	  0.00000E+000
  3.75000E-004	  8.50921E-001	  8.48112E-001	  0.00000E+000	  0.00000E+000
  4.00000E-004	  8.53420E-001	  8.52801E-001	  0.00000E+000	  0.00000E+000
  4.50000E-004	  8.49428E-001	  8.49486E-001	  0.00000E+000	  0.00000E+000
  5.00000E-004	  8.46693E-001	  8.44208E-001	  0.00000E+000	  0.00000E+000
  5.50000E-004	  8.50983E-001	  8.53970E-001	  0.00000E+000	  0.00000E+000
  6.00000E-004	  8.51195E-001	  8.51735E-001	  0.00000E+000	  0.00000E+000
  6.50000E-004	  8.52172E-001	  8.49260E-001	  0.00000E+000	  0.00000E+000
  7.00000E-004	  8.52873E-001	  8.52466E-001	  0.00000E+000	  0.00000E+000
  7.50000E-004	  8.48655E-001	  8.46437E-001	  0.00000E+000	  0.00000E+000
  8.00000E-004	  8.50458E-001	  8.47917E-001	  0.00000E+000	  0.00000E+000
  9.00000E-004	  8.51545E-001	  8.51913E-001	  0.00000E+000	  0.00000E+000
  1.00000E-003	  8.49859E-001	  8.50785E-001	  0.00000E+000	  0.00000E+000
  1.10000E-003	  8.49071E-001	  8.46933E-001	  0.00000E+000	  0.00000E+000
  1.20000E-003	  8.49553E-001	  8.48721E-001	  0.00000E+000	  0.00000E+000
  1.30000E-003	  8.49590E-001	  8.47753E-001	  0.00000E+000	  0.00000E+000
  1.40000E-003	  8.51903E-001	  8.52703E-001	  0.00000E+000	  0.00000E+000
  1.50000E-003	  8.49016E-001	  8.49887E-001	  0.00000E+000	  0.00000E+000
  1.60000E-003	  8.50415E-001	  8.50565E-001	  0.00000E+000	  0.00000E+000
  1.80000E-003	  8.49483E-001	  8.50683E-001	  0.00000E+000	  0.00000E+000
  2.00000E-003	  8.49605E-001	  8.49596E-001	  0.00000E+000	  0.00000E+000
  2.20000E-003	  8.48862E-001	  8.48607E-001	  0.00000E+000	  0.00000E+000
  2.40000E-003	  8.49324E-001	  8.49846E-001	  0.00000E+000	  0.00000E+000
  2.60000E-003	  8.50051E-001	  8.48744E-001	  0.00000E+000	  0.00000E+000
  2.80000E-003	  8.47515E-001	  8.48299E-001	  0.00000E+000	  0.00000E+000
  3.00000E-003	  8.50080E-001	  8.48463E-001	  0.00000E+000	  0.00000E+000
  3.20000E-003	  8.49663E-001	  8.48118E-001	  0.00000E+000	  0.00000E+000
  3.60000E-003	  8.49414E-001	  8.49494E-001	  0.00000E+000	  0.00000E+000
  4.00000E-003	  8.47657E-001	  8.47678E-001	  0.00000E+000	  0.00000E+000
  4.40000E-003	  8.48140E-001	  8.47884E-001	  0.00000E+000	  0.00000E+000
  4.80000E-003	  8.48047E-001	  8.49237E-001	  0.00000E+000	  0.00000E+000
  5.20000E-003	  8.46474E-001	  8.46478E-001	  0.00000E+000	  0.00000E+000
  5.60000E-003	  8.45630E-001	  8.45074E-001	  0.00000E+000	  0.00000E+000
  6.00000E-003	  8.45844E-001	  8.46111E-001	  0.00000E+000	  0.00000E+000
  6.40000E-003	  8.45680E-001	  8.45768E-001	  0.00000E+000	  0.00000E+000
  7.20000E-003	  8.45719E-001	  8.45327E-001	  0.00000E+000	  0.00000E+000
  8.00000E-003	  8.45256E-001	  8.43926E-001	  0.00000E+000	  0.00000E+000
  8.80000E-003	  8.44497E-001	  8.44017E-001	  0.00000E+000	  0.00000E+000
  9.60000E-003	  8.44171E-001	  8.44273E-001	  0.00000E+000	  0.00000E+000
  1.04000E-002	  8.42986E-001	  8.43228E-001	  0.00000E+000	  0.00000E+000
  1.12000E-002	  8.42650E-001	  8.41947E-001	  0.00000E+000	  0.00000E+000
  1.20000E-002	  8.42424E-001	  8.42747E-001	  0.00000E+000	  0.00000E+000
  1.28000E-002	  8.41221E-001	  8.41650E-001	  0.00000E+000	  0.00000E+000
  1.44000E-002	  8.39303E-001	  8.39131E-001	  0.00000E+000	  0.00000E+000
  1.60000E-002	  8.38031E-001	  8.38313E-001	  0.00000E+000	  0.00000E+000
  1.76000E-002	  8.37541E-001	  8.37664E-001	  0.00000E+000	  0.00000E+000
  1.92000E-002	  8.35988E-001	  8.35499E-001	  0.00000E+000	  0.00000E+000
  2.08000E-002	  8.34795E-001	  8.34655E-001	  0.00000E+000	  0.00000E+000
  2.24000E-002	  8.33543E-001	  8.33378E-001	  0.00000E+000	  0.00000E+000
  2.40000E-002	  8.31920E-001	  8.31689E-001	  0.00000E+000	  0.00000E+000
  2.56000E-002	  8.30814E-001	  8.30849E-001	  0.00000E+000	  0.00000E+000
  2.88000E-002	  8.28258E-001	  8.28443E-001	  0.00000E+000	  0.00000E+000
  3.20000E-002	  8.26240E-001	  8.26167E-001	  0.00000E+000	  0.00000E+000
  3.52000E-002	  8.23797E-001	  8.23623E-001	  0.00000E+000	  0.00000E+000
  3.84000E-002	  8.21794E-001	  8.21203E-001	  0.00000E+000	  0.00000E+000
  4.16000E-002	  8.19340E-001	  8.18963E-001	  0.00000E+000	  0.00000E+000
  4.48000E-002	  8.16838E-001	  8.16753E-001	  0.00000E+000	  0.00000E+000
  4.80000E-002	  8.14000E-001	  8.13851E-001	  0.00000E+000	  0.00000E+000
  5.12000E-002	  8.11831E-001	  8.11808E-001	  0.00000E+000	  0.00000E+000
  5.76000E-002	  8.07080E-001	  8.06858E-001	  0.00000E+000	  0.00000E+000
  6.40000E-002	  8.02360E-001	  8.02273E-001	  0.00000E+000	  0.00000E+000
  7.04000E-002	  7.98168E-001	  7.98214E-001	  0.00000E+000	  0.00000E+000
  7.68000E-002	  7.93173E-001	  7.92769E-001	  0.00000E+000	  0.00000E+000
  8.32000E-002	  7.88864E-001	  7.88557E-001	  0.00000E+000	  0.00000E+000
  8.96000E-002	  7.84020E-001	  7.83689E-001	  0.00000E+000	  0.00000E+000
  9.60000E-002	  7.79323E-001	  7.79190E-001	  0.00000E+000	  0.00000E+000
  1.02400E-001	  7.75076E-001	  7.74924E-001	  0.00000E+000	  0.00000E+000
  1.15200E-001	  7.66026E-001	  7.65733E-001	  0.00000E+000	  0.00000E+000
  1.28000E-001	  7.57493E-001	  7.57325E-001	  0.00000E+000	  0.00000E+000
  1.40800E-001	  7.48786E-001	  7.48355E-001	  0.00000E+000	  0.00000E+000
  1.53600E-001	  7.40144E-001	  7.39627E-001	  0.00000E+000	  0.00000E+000
  1.66400E-001	  7.31652E-001	  7.31049E-001	  0.00000E+000	  0.00000E+000
  1.79200E-001	  7.23341E-001	  7.22646E-001	  0.00000E+000	  0.00000E+000
  1.92000E-001	  7.15282E-001	  7.14777E-001	  0.00000E+000	  0.00000E+000
  2.04800E-001	  7.07115E-001	  7.06558E-001	  0.00000E+000	  0.00000E+000
  2.30400E-001	  6.91276E-001	  6.90867E-001	  0.00000E+000	  0.00000E+000
  2.56000E-001	  6.75589E-001	  6.75128E-001	  0.00000E+000	  0.00000E+000
  2.81600E-001	  6.60722E-001	  6.60314E-001	  0.00000E+000	  0.00000E+000
  3.07200E-001	  6.45981E-001	  6.45683E-001	  0.00000E+000	  0.00000E+000
  3.32800E-001	  6.31847E-001	  6.31598E-001	  0.00000E+000	  0.00000E+000
  3.58400E-001	  6.18034E-001	  6.17825E-001	  0.00000E+000	  0.00000E+000
  3.84000E-001	  6.04731E-001	  6.04456E-001	  0.00000E+000	  0.00000E+000
  4.09600E-001	  5.91607E-001	  5.91355E-001	  0.00000E+000	  0.00000E+000
  4.60800E-001	  5.65839E-001	  5.65988E-001	  0.00000E+000	  0.00000E+000
  5.12000E-001	  5.41543E-001	  5.41281E-001	  0.00000E+000	  0.00000E+000
  5.63200E-001	  5.18222E-001	  5.17952E-001	  0.00000E+000	  0.00000E+000
  6.14400E-001	  4.95896E-001	  4.95651E-001	  0.00000E+000	  0.00000E+000
  6.65600E-001	  4.74807E-001	  4.74647E-001	  0.00000E+000	  0.00000E+000
  7.16800E-001	  4.54605E-001	  4.54557E-001	  0.00000E+000	  0.00000E+000
  7.68000E-001	  4.35084E-001	  4.34981E-001	  0.00000E+000	  0.00000E+000
  8.19200E-001	  4.16996E-001	  4.16937E-001	  0.00000E+000	  0.00000E+000
  9.21600E-001	  3.82404E-001	  3.82491E-001	  0.00000E+000	  0.00000E+000
  1.02400E+000	  3.50065E-001	  3.50104E-001	  0.00000E+000	  0.00000E+000
  1.12640E+000	  3.20614E-001	  3.20837E-001	  0.00000E+000	  0.00000E+000
  1.22880E+000	  2.93337E-001	  2.93545E-001	  0.00000E+000	  0.00000E+000
  1.33120E+000	  2.68149E-001	  2.68455E-001	  0.00000E+000	  0.00000E+000
  1.43360E+000	  2.45189E-001	  2.45400E-001	  0.00000E+000	  0.00000E+000
  1.53600E+000	  2.24182E-001	  2.24433E-001	  0.00000E+000	  0.00000E+000
  1.63840E+000	  2.05036E-001	  2.05267E-001	  0.00000E+000	  0.00000E+000
  1.84320E+000	  1.70860E-001	  1.70796E-001	  0.00000E+000	  0.00000E+000
  2.04800E+000	  1.42746E-001	  1.42643E-001	  0.00000E+000	  0.00000E+000
  2.25280E+000	  1.19893E-001	  1.19885E-001	  0.00000E+000	  0.00000E+000
  2.45760E+000	  1.01904E-001	  1.01902E-001	  0.00000E+000	  0.00000E+000
  2.66240E+000	  8.85883E-002	  8.85796E-002	  0.00000E+000	  0.00000E+000
  2.86720E+000	  7.67162E-002	  7.66963E-002	  0.00000E+000	  0.00000E+000
  3.07200E+000	  6.56390E-002	  6.56607E-002	  0.00000E+000	  0.00000E+000
  3.27680E+000	  5.66551E-002	  5.64582E-002	  0.00000E+000	  0.00000E+000
  3.68640E+000	  4.11157E-002	  4.12057E-002	  0.00000E+000	  0.00000E+000
  4.09600E+000	  2.99782E-002	  3.01077E-002	  0.00000E+000	  0.00000E+000
  4.50560E+000	  2.33294E-002	  2.32503E-002	  0.00000E+000	  0.00000E+000
  4.91520E+000	  2.12263E-002	  2.11781E-002	  0.00000E+000	  0.00000E+000
  5.32480E+000	  2.30718E-002	  2.29562E-002	  0.00000E+000	  0.00000E+000
  5.73440E+000	  2.13777E-002	  2.12353E-002	  0.00000E+000	  0.00000E+000
  6.14400E+000	  1.64875E-002	  1.65398E-002	  0.00000E+000	  0.00000E+000
  6.55360E+000	  1.16205E-002	  1.14060E-002	  0.00000E+000	  0.00000E+000
  7.37280E+000	  5.93500E-003	  5.51574E-003	  0.00000E+000	  0.00000E+000
  8.19200E+000	  2.83322E-003	  2.31424E-003	  0.00000E+000	  0.00000E+000
  9.01120E+000	  4.11093E-003	  3.55932E-003	  0.00000E+000	  0.00000E+000
  9.83040E+000	  5.15062E-003	  4.72621E-003	  0.00000E+000	  0.00000E+000
  1.06496E+001	  4.32879E-003	  3.87179E-003	  0.00000E+000	  0.00000E+000
  1.14688E+001	  5.38115E-003	  5.16253E-003	  0.00000E+000	  0.00000E+000
  1.22880E+001	  8.53019E-003	  8.02198E-003	  0.00000E+000	  0.00000E+000
  1.31072E+001	  4.17393E-003	  3.82328E-003	  0.00000E+000	  0.00000E+000
  1.47456E+001	 -1.53573E-003	 -1.56189E-003	  0.00000E+000	  0.00000E+000
  1.63840E+001	 -1.13774E-003	 -1.10477E-003	  0.00000E+000	  0.00000E+000
  1.80224E+001	 -9.41247E-003	 -9.45989E-003	  0.00000E+000	  0.00000E+000
  1.96608E+001	 -1.37014E-002	 -1.33444E-002	  0.00000E+000	  0.00000E+000
  2.12992E+001	 -1.16574E-002	 -1.11245E-002	  0.00000E+000	  0.00000E+000
  2.29376E+001	  8.21058E-004	  1.14835E-003	  0.00000E+000	  0.00000E+000
  2.45760E+001	  1.59588E-002	  1.59584E-002	  0.00000E+000	  0.00000E+000
  2.62144E+001	  1.59982E-002	  1.57855E-002	  0.00000E+000	  0.00000E+000
  2.94912E+001	  2.22160E-003	  2.26234E-003	  0.00000E+000	  0.00000E+000
  3.27680E+001	  4.63776E-003	  4.60572E-003	  0.00000E+000	  0.00000E+000
  3.60448E+001	  5.75652E-003	  5.44820E-003	  0.00000E+000	  0.00000E+000
  3.93216E+001	 -3.36579E-003	 -3.65184E-003	  0.00000E+000	  0.00000E+000
  4.25984E+001	  8.57021E-004	  5.43424E-004	  0.00000E+000	  0.00000E+000
  4.58752E+001	 -1.96388E-003	 -2.03466E-003	  0.00000E+000	  0.00000E+000
  4.91520E+001	  7.31066E-003	  7.10786E-003	  0.00000E+000	  0.00000E+000
  5.24288E+001	  7.08121E-004	  6.87312E-004	  0.00000E+000	  0.00000E+000
  5.89824E+001	 -8.34876E-004	 -1.10280E-003	  0.00000E+000	  0.00000E+000
  6.55360E+001	  1.04652E-004	  1.85738E-004	  0.00000E+000	  0.00000E+000
  7.20896E+001	  5.37640E-003	  5.22038E-003	  0.00000E+000	  0.00000E+000
  7.86432E+001	 -8.75820E-004	 -9.37006E-004	  0.00000E+000	  0.00000E+000
  8.51968E+001	 -4.81971E-003	 -4.86510E-003	  0.00000E+000	  0.00000E+000
  9.17504E+001	 -7.89334E-003	 -8.02537E-003	  0.00000E+000	  0.00000E+000
  9.83040E+001	 -1.25399E-002	 -1.26464E-002	  0.00000E+000	  0.00000E+000
  1.04858E+002	 -2.99286E-003	 -2.84680E-003	  0.00000E+000	  0.00000E+000
  1.17965E+002	 -5.90808E-003	 -5.95301E-003	  0.00000E+000	  0.00000E+000
  1.31072E+002	  5.95584E-003	  5.76702E-003	  0.00000E+000	  0.00000E+000
  1.44179E+002	 -5.29806E-003	 -5.49105E-003	  0.00000E+000	  0.00000E+000
  1.57286E+002	  3.31464E-003	  3.03267E-003	  0.00000E+000	  0.00000E+000
  1.70394E+002	 -7.56847E-003	 -7.65505E-003	  0.00000E+000	  0.00000E+000
  1.83501E+002	 -4.71126E-006	 -5.45263E-005	  0.00000E+000	  0.00000E+000
  1.96608E+002	 -6.92656E-003	 -7.03912E-003	  0.00000E+000	  0.00000E+000
  2.09715E+002	 -1.22314E-002	 -1.24304E-002	  0.00000E+000	  0.00000E+000
  2.35930E+002	 -8.33142E-005	  1.60318E-004	  0.00000E+000	  0.00000E+000
  2.62144E+002	  5.20583E-003	  5.11883E-003	  0.00000E+000	  0.00000E+000
  2.88358E+002	 -1.36133E-003	 -1.29045E-003	  0.00000E+000	  0.00000E+000
  3.14573E+002	  4.46670E-004	  3.25096E-004	  0.00000E+000	  0.00000E+000
  3.40787E+002	 -5.09681E-003	 -5.20126E-003	  0.00000E+000	  0.00000E+000
  3.67002E+002	 -2.23533E-003	 -2.12796E-003	  0.00000E+000	  0.00000E+000
  3.93216E+002	  8.97041E-004	  9.66926E-004	  0.00000E+000	  0.00000E+000
  4.19430E+002	 -8.56980E-004	 -8.43814E-004	  0.00000E+000	  0.00000E+000
  4.71859E+002	 -3.78348E-003	 -3.70019E-003	  0.00000E+000	  0.00000E+000
  5.24288E+002	  5.45538E-004	  5.28815E-004	  0.00000E+000	  0.00000E+000
  5.76717E+002	  2.11156E-003	  2.05413E-003	  0.00000E+000	  0.00000E+000
  6.29146E+002	  2.93748E-004	  2.36777E-004	  0.00000E+000	  0.00000E+000
  6.81574E+002	  1.20173E-003	  1.21198E-003	  0.00000E+000	  0.00000E+000
  7.34003E+002	 -2.62377E-003	 -2.63235E-003	  0.00000E+000	  0.00000E+000
  7.86432E+002	  4.36737E-003	  4.53392E-003	  0.00000E+000	  0.00000E+000
  8.38861E+002	 -2.34942E-004	 -1.58708E-004	  0.00000E+000	  0.00000E+000
  9.43718E+002	 -4.30010E-004	 -4.61808E-004	  0.00000E+000	  0.00000E+000
  1.04858E+003	  1.57221E-003	  1.51609E-003	  0.00000E+000	  0.00000E+000
  1.15343E+003	 -1.73740E-003	 -1.69357E-003	  0.00000E+000	  0.00000E+000
  1.25829E+003	  2.83248E-003	  2.82763E-003	  0.00000E+000	  0.00000E+000
  1.36315E+003	  7.60774E-004	  8.40049E-004	  0.00000E+000	  0.00000E+000
  1.46801E+003	 -2.47566E-003	 -2.48792E-003	  0.00000E+000	  0.00000E+000
  1.57286E+003	 -1.44448E-003	 -1.45902E-003	  0.00000E+000	  0.00000E+000
  1.67772E+003	  6.09259E-004	  5.72093E-004	  0.00000E+000	  0.00000E+000
  1.88744E+003	  5.65352E-004	  6.05066E-004	  0.00000E+000	  0.00000E+000
  2.09715E+003	 -4.54806E-004	 -4.14282E-004	  0.00000E+000	  0.00000E+000
  2.30687E+003	  9.41664E-004	  9.05154E-004	  0.00000E+000	  0.00000E+000
  2.51658E+003	 -1.25350E-003	 -1.26842E-003	  0.00000E+000	  0.00000E+000
  2.72630E+003	  1.01763E-003	  9.87113E-004	  0.00000E+000	  0.00000E+000
  2.93601E+003	 -1.87357E-004	 -2.66011E-004	  0.00000E+000	  0.00000E+000
  3.14573E+003	  3.20154E-004	  4.21591E-004	  0.00000E+000	  0.00000E+000

"Count Rate"
       0.03906	     598.84760	     612.14111	     598.84760	     612.14111
       0.07813	     404.53207	     410.18182	     404.53207	     410.18182
       0.11719	     393.48822	     400.87634	     393.48822	     400.87634
       0.15625	     394.30630	     402.94708	     394.30630	     402.94708
       0.19531	     506.30420	     518.26837	     506.30420	     518.26837
       0.23438	     735.77081	     751.33960	     735.77081	     751.33960
       0.27344	     392.20999	     405.19675	     392.20999	     405.19675
       0.31250	     344.96689	     352.66177	     344.96689	     352.66177
       0.35156	     514.99609	     527.93176	     514.99609	     527.93176
       0.39063	     510.80356	     526.11664	     510.80356	     526.11664
       0.42969	     552.11572	     553.87970	     552.11572	     553.87970
       0.46875	     655.34503	     680.16815	     655.34503	     680.16815
       0.50781	     576.29968	     580.05768	     576.29968	     580.05768
       0.54688	     573.00189	     586.57660	     573.00189	     586.57660
       0.58594	     413.17285	     414.91125	     413.17285	     414.91125
       0.62500	     592.71210	     606.10785	     592.71210	     606.10785
       0.66406	     516.58112	     532.17542	     516.58112	     532.17542
       0.70313	     393.18146	     401.15756	     393.18146	     401.15756
       0.74219	     506.58542	     510.52234	     506.58542	     510.52234
       0.78125	     579.21405	     593.58130	     579.21405	     593.58130
       0.82031	     505.61395	     507.25009	     505.61395	     507.25009
       0.85938	     600.38141	     623.03156	     600.38141	     623.03156
       0.89844	     500.65445	     508.14484	     500.65445	     508.14484
       0.93750	     453.05344	     454.99634	     453.05344	     454.99634
       0.97656	     390.06259	     393.92282	     390.06259	     393.92282
       1.01563	     517.29694	     529.41449	     517.29694	     529.41449
       1.05469	     596.03546	     616.05243	     596.03546	     616.05243
       1.09375	     436.74329	     440.16895	     436.74329	     440.16895
       1.13281	     541.88995	     554.97894	     541.88995	     554.97894
       1.17188	     473.32605	     481.37885	     473.32605	     481.37885
       1.21094	     546.21033	     548.66455	     546.21033	     548.66455
       1.25000	     696.52936	     714.57788	     696.52936	     714.57788
       1.28906	     445.20514	     454.22940	     445.20514	     454.22940
       1.32813	     544.26746	     553.47064	     544.26746	     553.47064
       1.36719	     616.99835	     632.41370	     616.99835	     632.41370
       1.40625	     448.78415	     458.65204	     448.78415	     458.65204
       1.44531	     498.02133	     501.42139	     498.02133	     501.42139
       1.48438	     624.61652	     632.43927	     624.61652	     632.43927
       1.52344	     401.46432	     405.14563	     401.46432	     405.14563
       1.56250	     735.36182	     760.97742	     735.36182	     760.97742
       1.60156	     452.95117	     461.97543	     452.95117	     461.97543
       1.64063	     501.44696	     508.27267	     501.44696	     508.27267
       1.67969	     516.37659	     518.06384	     516.37659	     518.06384
       1.71875	     351.94598	     356.44531	     351.94598	     356.44531
       1.75781	     510.65018	     517.78265	     510.65018	     517.78265
       1.79688	     397.32291	     407.29303	     397.32291	     407.29303
       1.83594	     383.23688	     383.08350	     383.23688	     383.08350
       1.87500	     434.11017	     446.71344	     434.11017	     446.71344
       1.91406	     902.24664	     914.54315	     902.24664	     914.54315
       1.95313	     498.63486	     503.13422	     498.63486	     503.13422
       1.99219	     522.15417	     535.70337	     522.15417	     535.70337
       2.03125	     467.21613	     473.47943	     467.21613	     473.47943
       2.07031	     454.94519	     458.90768	     454.94519	     458.90768
       2.10938	     412.07358	     414.78342	     412.07358	     414.78342
       2.14844	     582.58856	     605.34094	     582.58856	     605.34094
       2.18750	     563.77313	     567.27545	     563.77313	     567.27545
       2.22656	     522.69104	     529.44006	     522.69104	     529.44006
       2.26563	     618.09760	     626.07373	     618.09760	     626.07373
       2.30469	     490.09634	     497.97018	     490.09634	     497.97018
       2.34375	     478.46451	     487.71884	     478.46451	     487.71884
       2.38281	     515.50739	     520.05786	     515.50739	     520.05786
       2.42188	     472.07339	     485.87820	     472.07339	     485.87820
       2.46094	     471.35757	     479.61490	     471.35757	     479.61490
       2.50000	     814.61163	     823.17572	     814.61163	     823.17572
       2.53906	     531.81757	     545.87799	     531.81757	     545.87799
       2.57813	     504.51468	     507.09671	     504.51468	     507.09671
       2.61719	     492.24374	     498.25140	     492.24374	     498.25140
       2.65625	     723.09088	     739.96338	     723.09088	     739.96338
       2.69531	     589.69550	     600.25360	     589.69550	     600.25360
       2.73438	     441.93289	     455.32867	     441.93289	     455.32867
       2.77344	     389.42349	     396.01910	     389.42349	     396.01910
       2.81250	     376.36005	     381.77969	     376.36005	     381.77969
       2.85156	     764.14740	     782.93726	     764.14740	     782.93726
       2.89063	     673.75146	     685.43439	     673.75146	     685.43439
       2.92969	     397.85974	     401.51547	     397.85974	     401.51547
       2.96875	     449.67892	     457.78287	     449.67892	     457.78287
       3.00781	     600.25360	     612.39673	     600.25360	     612.39673
       3.04688	     362.04395	     367.69370	     362.04395	     367.69370
       3.08594	     345.19696	     352.07379	     345.19696	     352.07379
       3.12500	     449.47440	     463.99503	     449.47440	     463.99503
       3.16406	     615.31110	     628.24670	     615.31110	     628.24670
       3.20313	     443.97806	     456.32568	     443.97806	     456.32568
       3.24219	     648.54486	     671.50177	     648.54486	     671.50177
       3.28125	     683.23584	     687.53070	     683.23584	     687.53070
       3.32031	     657.79919	     667.43701	     657.79919	     667.43701
       3.35938	     695.76245	     703.32953	     695.76245	     703.32953
       3.39844	     603.67926	     612.67792	     603.67926	     612.67792
       3.43750	     684.59076	     689.78033	     684.59076	     689.78033
       3.47656	     572.08154	     575.99292	     572.08154	     575.99292
       3.51563	     460.77390	     466.14243	     460.77390	     466.14243
       3.55469	     379.29996	     387.53171	     379.29996	     387.53171
       3.59375	     504.02896	     523.27899	     504.02896	     523.27899
       3.63281	     681.36963	     694.56091	     681.36963	     694.56091
       3.67188	     369.45764	     375.87430	     369.45764	     375.87430
       3.71094	     619.45251	     632.54150	     619.45251	     632.54150
       3.75000	     595.95880	     618.35327	     595.95880	     618.35327
       3.78906	     523.68805	     536.93042	     523.68805	     536.93042
       3.82813	     350.41211	     358.28595	     350.41211	     358.28595
       3.86719	     618.50665	     628.40009	     618.50665	     628.40009
       3.90625	     556.53839	     567.09650	     556.53839	     567.09650
       3.94531	     560.09186	     567.99127	     560.09186	     567.99127
       3.98438	     470.84628	     477.23740	     470.84628	     477.23740
       4.02344	     458.60092	     464.81308	     458.60092	     464.81308
       4.06250	     494.28891	     510.34338	     494.28891	     510.34338
       4.10156	     464.96646	     471.74106	     464.96646	     471.74106
       4.14063	     423.09189	     434.28912	     423.09189	     434.28912
       4.17969	     583.91791	     589.49097	     583.91791	     589.49097
       4.21875	     556.05267	     570.88007	     556.05267	     570.88007
       4.25781	     646.67865	     657.79919	     646.67865	     657.79919
       4.29688	     508.93735	     525.09412	     508.93735	     525.09412
       4.33594	     499.50406	     507.99146	     499.50406	     507.99146
       4.37500	     452.66995	     462.51227	     452.66995	     462.51227
       4.41406	     451.31503	     455.43091	     451.31503	     455.43091
       4.45313	     530.33478	     543.52606	     530.33478	     543.52606
       4.49219	     510.98251	     522.40979	     510.98251	     522.40979
       4.53125	     391.59647	     397.68079	     391.59647	     397.68079
       4.57031	     382.23987	     392.08218	     382.23987	     392.08218
       4.60938	     728.97070	     752.74567	     728.97070	     752.74567
       4.64844	     496.48746	     502.06052	     496.48746	     502.06052
       4.68750	     655.44727	     664.36926	     655.44727	     664.36926
       4.72656	     566.78973	     580.64569	     566.78973	     580.64569
       4.76563	     571.41687	     580.82465	     571.41687	     580.82465
       4.80469	     610.22375	     627.45422	     610.22375	     627.45422
       4.84375	     405.70804	     410.53973	     405.70804	     410.53973
       4.88281	     522.46094	     527.88062	     522.46094	     527.88062
       4.92188	     488.30682	     497.27994	     488.30682	     497.27994
       4.96094	     648.28925	     662.11963	     648.28925	     662.11963
       5.00000	     830.61499	     841.99115	     830.61499	     841.99115
       5.03906	     458.19189	     466.62814	     458.19189	     466.62814
       5.07813	     460.03253	     471.97113	     460.03253	     471.97113
       5.11719	     493.26633	     507.42905	     493.26633	     507.42905
       5.15625	     493.24075	     513.28333	     493.24075	     513.28333
       5.19531	     482.86160	     492.03925	     482.86160	     492.03925
       5.23438	     600.61151	     608.58765	     600.61151	     608.58765
       5.27344	     396.88831	     398.57556	     396.88831	     398.57556
       5.31250	     580.23663	     588.18719	     580.23663	     588.18719
       5.35156	     599.15436	     608.84326	     599.15436	     608.84326
       5.39063	     812.28528	     838.46326	     812.28528	     838.46326
       5.42969	     475.80579	     481.07208	     475.80579	     481.07208
       5.46875	     486.38950	     494.80020	     486.38950	     494.80020
       5.50781	     470.97412	     473.14709	     470.97412	     473.14709
       5.54688	     678.81323	     697.47528	     678.81323	     697.47528
       5.58594	     605.87781	     628.86023	     605.87781	     628.86023
       5.62500	     670.63257	     677.76508	     670.63257	     677.76508
       5.66406	     527.59943	     540.20270	     527.59943	     540.20270
       5.70313	     811.64618	     828.62097	     811.64618	     828.62097
       5.74219	     397.78305	     405.04337	     397.78305	     405.04337
       5.78125	     450.67593	     459.26559	     450.67593	     459.26559
       5.82031	     364.24249	     367.59143	     364.24249	     367.59143
       5.85938	     514.28033	     522.58875	     514.28033	     522.58875
       5.89844	     456.27454	     463.50931	     456.27454	     463.50931
       5.93750	     567.24988	     577.78247	     567.24988	     577.78247
       5.97656	     569.21832	     572.64398	     569.21832	     572.64398
       6.01563	     484.19095	     486.51730	     484.19095	     486.51730
       6.05469	     750.39368	     763.55939	     750.39368	     763.55939
       6.09375	     383.82486	     385.38428	     383.82486	     385.38428
       6.13281	     525.27301	     534.98755	     525.27301	     534.98755
       6.17188	     530.28369	     535.98456	     530.28369	     535.98456
       6.21094	     594.11816	     602.17096	     594.11816	     602.17096
       6.25000	     575.58392	     575.94183	     575.58392	     575.94183
       6.28906	     387.86404	     396.07025	     387.86404	     396.07025
       6.32813	     440.96143	     445.02618	     440.96143	     445.02618
       6.36719	     420.04971	     417.92786	     420.04971	     417.92786
       6.40625	     525.83545	     537.21167	     525.83545	     537.21167
       6.44531	     363.73120	     372.26971	     363.73120	     372.26971
       6.48438	     591.61279	     605.08527	     591.61279	     605.08527
       6.52344	     613.49603	     634.63782	     613.49603	     634.63782
       6.56250	     533.22357	     546.36371	     533.22357	     546.36371
       6.60156	     543.65387	     557.04968	     543.65387	     557.04968
       6.64063	     863.56757	     884.93945	     863.56757	     884.93945
       6.67969	     826.29462	     848.51013	     826.29462	     848.51013
       6.71875	     647.29224	     652.14948	     647.29224	     652.14948
       6.75781	     694.27972	     713.17188	     694.27972	     713.17188
       6.79688	     401.25983	     404.09747	     401.25983	     404.09747
       6.83594	     484.29321	     497.38220	     484.29321	     497.38220
       6.87500	     380.68042	     386.33017	     380.68042	     386.33017
       6.91406	     611.37415	     627.78656	     611.37415	     627.78656
       6.95313	     363.42441	     361.48151	     363.42441	     361.48151
       6.99219	     526.96027	     535.16650	     526.96027	     535.16650
       7.03125	     535.75446	     539.81921	     535.75446	     539.81921
       7.07031	     577.93585	     587.19019	     577.93585	     587.19019
       7.10938	     435.59290	     449.06537	     435.59290	     449.06537
       7.14844	     487.07974	     494.34003	     487.07974	     494.34003
       7.18750	     524.58282	     544.54865	     524.58282	     544.54865
       7.22656	     596.18884	     603.44916	     596.18884	     603.44916
       7.26563	     713.52972	     725.49390	     713.52972	     725.49390
       7.30469	     325.02658	     328.55447	     325.02658	     328.55447
       7.34375	     583.45776	     597.90167	     583.45776	     597.90167
       7.38281	     488.48578	     490.14746	     488.48578	     490.14746
       7.42188	     439.12079	     446.12546	     439.12079	     446.12546
       7.46094	     639.69958	     652.94196	     639.69958	     652.94196
       7.50000	     623.84961	     634.94458	     623.84961	     634.94458
       7.53906	     700.38959	     711.45905	     700.38959	     711.45905
       7.57813	     354.17007	     365.18835	     354.17007	     365.18835
       7.61719	     359.87097	     369.38095	     359.87097	     369.38095
       7.65625	     510.42007	     521.48950	     510.42007	     521.48950
       7.69531	     491.52795	     501.98383	     491.52795	     501.98383
       7.73438	     695.96698	     703.20172	     695.96698	     703.20172
       7.77344	     674.85071	     688.19537	     674.85071	     688.19537
       7.81250	     450.80374	     460.59494	     450.80374	     460.59494
       7.85156	     650.82013	     657.36462	     650.82013	     657.36462
       7.89063	     336.55615	     341.51569	     336.55615	     341.51569
       7.92969	     498.09802	     508.65613	     498.09802	     508.65613
       7.96875	     533.40253	     545.95471	     533.40253	     545.95471
       8.00781	     625.58801	     637.01532	     625.58801	     637.01532
       8.04688	     753.33362	     773.06940	     753.33362	     773.06940
       8.08594	     786.46515	     800.32111	     786.46515	     800.32111
       8.12500	     443.92691	     459.93027	     443.92691	     459.93027
       8.16406	     385.02640	     388.17081	     385.02640	     388.17081
       8.20313	     532.43109	     535.37097	     532.43109	     535.37097
       8.24219	     550.37732	     560.21967	     550.37732	     560.21967
       8.28125	     584.58258	     592.20081	     584.58258	     592.20081
       8.32031	     760.51721	     768.13544	     760.51721	     768.13544
       8.35938	     478.74573	     480.96982	     478.74573	     480.96982
       8.39844	     631.90240	     643.89215	     631.90240	     643.89215
       8.43750	     531.05060	     532.66119	     531.05060	     532.66119
       8.47656	     606.92596	     622.54584	     606.92596	     622.54584
       8.51563	     493.41971	     508.50275	     493.41971	     508.50275
       8.55469	     590.71808	     605.05975	     590.71808	     605.05975
       8.59375	     510.24112	     519.41876	     510.24112	     519.41876
       8.63281	     554.13531	     559.55499	     554.13531	     559.55499
       8.67188	     485.34134	     492.98511	     485.34134	     492.98511
       8.71094	     889.13208	     914.00629	     889.13208	     914.00629
       8.75000	     492.70392	     496.97318	     492.70392	     496.97318
       8.78906	     516.52997	     530.66711	     516.52997	     530.66711
       8.82813	     521.31055	     539.35907	     521.31055	     539.35907
       8.86719	     521.82184	     534.83417	     521.82184	     534.83417
       8.90625	     376.53900	     378.45633	     376.53900	     378.45633
       8.94531	     234.27275	     237.34048	     234.27275	     237.34048
       8.98438	     448.40070	     462.58896	     448.40070	     462.58896
       9.02344	     395.76346	     401.71997	     395.76346	     401.71997
       9.06250	     561.95807	     569.39728	     561.95807	     569.39728
       9.10156	     871.33917	     905.28882	     871.33917	     905.28882
       9.14063	     517.37360	     528.31519	     517.37360	     528.31519
       9.17969	     421.76251	     434.21243	     421.76251	     434.21243
       9.21875	     525.29858	     531.99652	     525.29858	     531.99652
       9.25781	     696.55493	     708.69806	     696.55493	     708.69806
       9.29688	     837.36401	     862.13599	     837.36401	     862.13599
       9.33594	     494.90247	     509.42307	     494.90247	     509.42307
       9.37500	     564.54004	     574.15228	     564.54004	     574.15228
       9.41406	     678.02069	     692.61804	     678.02069	     692.61804
       9.45313	     559.83618	     568.98828	     559.83618	     568.98828
       9.49219	     443.79910	     450.34360	     443.79910	     450.34360
       9.53125	     803.90015	     821.48846	     803.90015	     821.48846
       9.57031	     487.92337	     493.21521	     487.92337	     493.21521
       9.60938	     513.30890	     517.85931	     513.30890	     517.85931
       9.64844	     421.96704	     432.42291	     421.96704	     432.42291
       9.68750	     486.46619	     502.06052	     486.46619	     502.06052
       9.72656	     567.50555	     577.73132	     567.50555	     577.73132
       9.76563	     387.53171	     393.69275	     387.53171	     393.69275
       9.80469	     488.46021	     505.38388	     488.46021	     505.38388
       9.84375	     616.87048	     633.28290	     616.87048	     633.28290
       9.88281	     467.65073	     474.37418	     467.65073	     474.37418

Monitor Diode	 151952.03

"Cumulant 1.Order"
FluctuationFreq. [1/ms]	 4.3453E-001
DiffCoefficient [µm²/s]	 1.8878E+000
Hydrodyn. Radius [nm]	 1.2913E+002

"Cumulant 2.Order"
FluctuationFreq. [1/ms]	 4.4244E-001
DiffCoefficient [µm²/s]	 1.9221E+000
Hydrodyn. Radius [nm]	 1.2682E+002
Expansion Parameter µ2	 1.0349E-002

"Cumulant 3.Order"
FluctuationFreq. [1/ms]	 4.4712E-001
DiffCoefficient [µm²/s]	 1.9424E+000
Hydrodyn. Radius [nm]	 1.2549E+002
Expansion Parameter µ2	 2.5827E-002
Expansion Parameter µ3	 1.5424E-002

"StandardDeviation"
  2.50000E-005	  1.86129E-002
  5.00000E-005	  1.86132E-002
  7.50000E-005	  1.86133E-002
  1.00000E-004	  1.86137E-002
  1.25000E-004	  1.86138E-002
  1.50000E-004	  1.86144E-002
  1.75000E-004	  1.86146E-002
  2.00000E-004	  1.86149E-002
  2.25000E-004	  1.86141E-002
  2.50000E-004	  1.86139E-002
  2.75000E-004	  1.86079E-002
  3.00000E-004	  1.86103E-002
  3.25000E-004	  1.86066E-002
  3.50000E-004	  1.86132E-002
  3.75000E-004	  1.86090E-002
  4.00000E-004	  1.81901E-002
  4.50000E-004	  1.81887E-002
  5.00000E-004	  1.81877E-002
  5.50000E-004	  1.81892E-002
  6.00000E-004	  1.81893E-002
  6.50000E-004	  1.81897E-002
  7.00000E-004	  1.81900E-002
  7.50000E-004	  1.81884E-002
  8.00000E-004	  1.79754E-002
  9.00000E-004	  1.79754E-002
  1.00000E-003	  1.79750E-002
  1.10000E-003	  1.79748E-002
  1.20000E-003	  1.79749E-002
  1.30000E-003	  1.79749E-002
  1.40000E-003	  1.79755E-002
  1.50000E-003	  1.79747E-002
  1.60000E-003	  1.78672E-002
  1.80000E-003	  1.78665E-002
  2.00000E-003	  1.78664E-002
  2.20000E-003	  1.78663E-002
  2.40000E-003	  1.78664E-002
  2.60000E-003	  1.78665E-002
  2.80000E-003	  1.78659E-002
  3.00000E-003	  1.78664E-002
  3.20000E-003	  1.78118E-002
  3.60000E-003	  1.78107E-002
  4.00000E-003	  1.78104E-002
  4.40000E-003	  1.78104E-002
  4.80000E-003	  1.78103E-002
  5.20000E-003	  1.78100E-002
  5.60000E-003	  1.78099E-002
  6.00000E-003	  1.78098E-002
  6.40000E-003	  1.77821E-002
  7.20000E-003	  1.77798E-002
  8.00000E-003	  1.77796E-002
  8.80000E-003	  1.77794E-002
  9.60000E-003	  1.77792E-002
  1.04000E-002	  1.77789E-002
  1.12000E-002	  1.77786E-002
  1.20000E-002	  1.77784E-002
  1.28000E-002	  1.77632E-002
  1.44000E-002	  1.77585E-002
  1.60000E-002	  1.77580E-002
  1.76000E-002	  1.77574E-002
  1.92000E-002	  1.77568E-002
  2.08000E-002	  1.77562E-002
  2.24000E-002	  1.77555E-002
  2.40000E-002	  1.77548E-002
  2.56000E-002	  1.77442E-002
  2.88000E-002	  1.77351E-002
  3.20000E-002	  1.77338E-002
  3.52000E-002	  1.77324E-002
  3.84000E-002	  1.77308E-002
  4.16000E-002	  1.77291E-002
  4.48000E-002	  1.77274E-002
  4.80000E-002	  1.77257E-002
  5.12000E-002	  1.77140E-002
  5.76000E-002	  1.76965E-002
  6.40000E-002	  1.76935E-002
  7.04000E-002	  1.76898E-002
  7.68000E-002	  1.76862E-002
  8.32000E-002	  1.76822E-002
  8.96000E-002	  1.76782E-002
  9.60000E-002	  1.76738E-002
  1.02400E-001	  1.76603E-002
  1.15200E-001	  1.76229E-002
  1.28000E-001	  1.76138E-002
  1.40800E-001	  1.76043E-002
  1.53600E-001	  1.75912E-002
  1.66400E-001	  1.75808E-002
  1.79200E-001	  1.75687E-002
  1.92000E-001	  1.75560E-002
  2.04800E-001	  1.75199E-002
  2.30400E-001	  1.74594E-002
  2.56000E-001	  1.74265E-002
  2.81600E-001	  1.73943E-002
  3.07200E-001	  1.73576E-002
  3.32800E-001	  1.73217E-002
  3.58400E-001	  1.72794E-002
  3.84000E-001	  1.72388E-002
  4.09600E-001	  1.71326E-002
  4.60800E-001	  1.69581E-002
  5.12000E-001	  1.68637E-002
  5.63200E-001	  1.67629E-002
  6.14400E-001	  1.66599E-002
  6.65600E-001	  1.65565E-002
  7.16800E-001	  1.64397E-002
  7.68000E-001	  1.63166E-002
  8.19200E-001	  1.62811E-002
  9.21600E-001	  1.59000E-002
  1.02400E+000	  1.56507E-002
  1.12640E+000	  1.53983E-002
  1.22880E+000	  1.51317E-002
  1.33120E+000	  1.48603E-002
  1.43360E+000	  1.46120E-002
  1.53600E+000	  1.43662E-002
  1.63840E+000	  1.40414E-002
  1.84320E+000	  1.35503E-002
  2.04800E+000	  1.30990E-002
  2.25280E+000	  1.26974E-002
  2.45760E+000	  1.23510E-002
  2.66240E+000	  1.20492E-002
  2.86720E+000	  1.17532E-002
  3.07200E+000	  1.14695E-002
  3.27680E+000	  1.12366E-002
  3.68640E+000	  1.07504E-002
  4.09600E+000	  1.03964E-002
  4.50560E+000	  1.01664E-002
  4.91520E+000	  1.00548E-002
  5.32480E+000	  1.00228E-002
  5.73440E+000	  9.95852E-003
  6.14400E+000	  9.81213E-003
  6.55360E+000	  9.47506E-003
  7.37280E+000	  8.90619E-003
  8.19200E+000	  8.90619E-003
  9.01120E+000	  8.90619E-003
  9.83040E+000	  8.90619E-003
  1.06496E+001	  8.90619E-003
  1.14688E+001	  8.90619E-003
  1.22880E+001	  8.90619E-003
  1.31072E+001	  8.46892E-003
  1.47456E+001	  8.46892E-003
  1.63840E+001	  8.46892E-003
  1.80224E+001	  8.46892E-003
  1.96608E+001	  8.46892E-003
  2.12992E+001	  8.46892E-003
  2.29376E+001	  8.46892E-003
  2.45760E+001	  8.46892E-003
  2.62144E+001	  7.51253E-003
  2.94912E+001	  7.51253E-003
  3.27680E+001	  7.51253E-003
  3.60448E+001	  7.51253E-003
  3.93216E+001	  7.51253E-003
  4.25984E+001	  7.51253E-003
  4.58752E+001	  7.51253E-003
  4.91520E+001	  7.51253E-003
  5.24288E+001	  6.43850E-003
  5.89824E+001	  6.43850E-003
  6.55360E+001	  6.43850E-003
  7.20896E+001	  6.43850E-003
  7.86432E+001	  6.43850E-003
  8.51968E+001	  6.43850E-003
  9.17504E+001	  6.43850E-003
  9.83040E+001	  6.43850E-003
  1.04858E+002	  5.11686E-003
  1.17965E+002	  5.11686E-003
  1.31072E+002	  5.11686E-003
  1.44179E+002	  5.11686E-003
  1.57286E+002	  5.11686E-003
  1.70394E+002	  5.11686E-003
  1.83501E+002	  5.11686E-003
  1.96608E+002	  5.11686E-003
  2.09715E+002	  3.86564E-003
  2.35930E+002	  3.86564E-003
  2.62144E+002	  3.86564E-003
  2.88358E+002	  3.86564E-003
  3.14573E+002	  3.86564E-003
  3.40787E+002	  3.86564E-003
  3.67002E+002	  3.86564E-003
  3.93216E+002	  3.86564E-003
  4.19430E+002	  2.82212E-003
  4.71859E+002	  2.82212E-003
  5.24288E+002	  2.82212E-003
  5.76717E+002	  2.82212E-003
  6.29146E+002	  2.82212E-003
  6.81574E+002	  2.82212E-003
  7.34003E+002	  2.82212E-003
  7.86432E+002	  2.82212E-003
  8.38861E+002	  2.02690E-003
  9.43718E+002	  2.02690E-003
  1.04858E+003	  2.02690E-003
  1.15343E+003	  2.02690E-003
  1.25829E+003	  2.02690E-003
  1.36315E+003	  2.02690E-003
  1.46801E+003	  2.02690E-003
  1.57286E+003	  2.02690E-003
  1.67772E+003	  1.44432E-003
  1.88744E+003	  1.44432E-003
  2.09715E+003	  1.44432E-003
  2.30687E+003	  1.44432E-003
  2.51658E+003	  1.44432E-003
  2.72630E+003	  1.44432E-003
  2.93601E+003	  1.44432E-003
  3.14573E+003	  1.44432E-003
