ALV-7004/USB
Date :	"08.06.2022"
Time :	"14:30:39"
Samplename : 	"Samplename needed."
SampMemo(0) : 	""
SampMemo(1) : 	""
SampMemo(2) : 	""
SampMemo(3) : 	""
SampMemo(4) : 	""
SampMemo(5) : 	""
SampMemo(6) : 	""
SampMemo(7) : 	""
SampMemo(8) : 	""
SampMemo(9) : 	""
Temperature [K] :	     297.92132
Viscosity [cp]  :	       0.89484
Refractive Index:	       1.33200
Wavelength [nm] :	     632.80000
Angle [°]       :	      80.00000
Duration [s]    :	        10
FloatDur [ms]   :	         9961
Stop TP [ms]   :	  16777216
Runs            :	         1
Mode            :	"C-CH0/1+1/0"
MeanCR0 [kHz]   :	     404.25794
MeanCR1 [kHz]   :	     412.54163
MeanCR2 [kHz]   :	       0.00000
MeanCR3 [kHz]   :	       0.00000

"Correlation"
  2.50000E-005	  9.06101E-001	  8.95904E-001	  0.00000E+000	  0.00000E+000
  5.00000E-005	  9.01346E-001	  9.02767E-001	  0.00000E+000	  0.00000E+000
  7.50000E-005	  9.03055E-001	  9.03152E-001	  0.00000E+000	  0.00000E+000
  1.00000E-004	  9.09761E-001	  9.10231E-001	  0.00000E+000	  0.00000E+000
  1.25000E-004	  9.03754E-001	  8.99275E-001	  0.00000E+000	  0.00000E+000
  1.50000E-004	  9.05812E-001	  9.09484E-001	  0.00000E+000	  0.00000E+000
  1.75000E-004	  9.06932E-001	  9.11386E-001	  0.00000E+000	  0.00000E+000
  2.00000E-004	  9.03549E-001	  9.03513E-001	  0.00000E+000	  0.00000E+000
  2.25000E-004	  9.16009E-001	  9.14757E-001	  0.00000E+000	  0.00000E+000
  2.50000E-004	  9.10640E-001	  9.16322E-001	  0.00000E+000	  0.00000E+000
  2.75000E-004	  9.05379E-001	  8.99275E-001	  0.00000E+000	  0.00000E+000
  3.00000E-004	  9.12048E-001	  9.09292E-001	  0.00000E+000	  0.00000E+000
  3.25000E-004	  9.13349E-001	  9.06812E-001	  0.00000E+000	  0.00000E+000
  3.50000E-004	  9.02550E-001	  9.06980E-001	  0.00000E+000	  0.00000E+000
  3.75000E-004	  9.09568E-001	  9.13625E-001	  0.00000E+000	  0.00000E+000
  4.00000E-004	  9.11079E-001	  9.09027E-001	  0.00000E+000	  0.00000E+000
  4.50000E-004	  9.09502E-001	  9.13566E-001	  0.00000E+000	  0.00000E+000
  5.00000E-004	  9.09514E-001	  9.04669E-001	  0.00000E+000	  0.00000E+000
  5.50000E-004	  9.03188E-001	  8.99757E-001	  0.00000E+000	  0.00000E+000
  6.00000E-004	  9.07624E-001	  9.08401E-001	  0.00000E+000	  0.00000E+000
  6.50000E-004	  9.08732E-001	  9.09509E-001	  0.00000E+000	  0.00000E+000
  7.00000E-004	  9.09430E-001	  9.08413E-001	  0.00000E+000	  0.00000E+000
  7.50000E-004	  9.04632E-001	  9.06126E-001	  0.00000E+000	  0.00000E+000
  8.00000E-004	  9.05756E-001	  9.05838E-001	  0.00000E+000	  0.00000E+000
  9.00000E-004	  9.08796E-001	  9.08956E-001	  0.00000E+000	  0.00000E+000
  1.00000E-003	  9.07011E-001	  9.07746E-001	  0.00000E+000	  0.00000E+000
  1.10000E-003	  9.04735E-001	  9.02990E-001	  0.00000E+000	  0.00000E+000
  1.20000E-003	  9.06686E-001	  9.05350E-001	  0.00000E+000	  0.00000E+000
  1.30000E-003	  9.04777E-001	  9.04646E-001	  0.00000E+000	  0.00000E+000
  1.40000E-003	  9.04266E-001	  9.05103E-001	  0.00000E+000	  0.00000E+000
  1.50000E-003	  9.08434E-001	  9.07619E-001	  0.00000E+000	  0.00000E+000
  1.60000E-003	  9.04086E-001	  9.04360E-001	  0.00000E+000	  0.00000E+000
  1.80000E-003	  9.05043E-001	  9.05221E-001	  0.00000E+000	  0.00000E+000
  2.00000E-003	  9.06035E-001	  9.04442E-001	  0.00000E+000	  0.00000E+000
  2.20000E-003	  9.04533E-001	  9.03810E-001	  0.00000E+000	  0.00000E+000
  2.40000E-003	  9.04980E-001	  9.06467E-001	  0.00000E+000	  0.00000E+000
  2.60000E-003	  9.05519E-001	  9.05230E-001	  0.00000E+000	  0.00000E+000
  2.80000E-003	  9.01446E-001	  9.01980E-001	  0.00000E+000	  0.00000E+000
  3.00000E-003	  9.05310E-001	  9.07852E-001	  0.00000E+000	  0.00000E+000
  3.20000E-003	  9.03609E-001	  9.02713E-001	  0.00000E+000	  0.00000E+000
  3.60000E-003	  9.03709E-001	  9.03318E-001	  0.00000E+000	  0.00000E+000
  4.00000E-003	  9.02919E-001	  9.02845E-001	  0.00000E+000	  0.00000E+000
  4.40000E-003	  9.01266E-001	  9.01167E-001	  0.00000E+000	  0.00000E+000
  4.80000E-003	  9.03799E-001	  9.05394E-001	  0.00000E+000	  0.00000E+000
  5.20000E-003	  9.01733E-001	  9.01114E-001	  0.00000E+000	  0.00000E+000
  5.60000E-003	  9.01494E-001	  9.01277E-001	  0.00000E+000	  0.00000E+000
  6.00000E-003	  8.99512E-001	  9.00177E-001	  0.00000E+000	  0.00000E+000
  6.40000E-003	  9.00861E-001	  9.00484E-001	  0.00000E+000	  0.00000E+000
  7.20000E-003	  8.99270E-001	  9.00707E-001	  0.00000E+000	  0.00000E+000
  8.00000E-003	  8.99553E-001	  9.00039E-001	  0.00000E+000	  0.00000E+000
  8.80000E-003	  8.98153E-001	  8.97753E-001	  0.00000E+000	  0.00000E+000
  9.60000E-003	  8.96199E-001	  8.95722E-001	  0.00000E+000	  0.00000E+000
  1.04000E-002	  8.97509E-001	  8.98137E-001	  0.00000E+000	  0.00000E+000
  1.12000E-002	  8.95378E-001	  8.95230E-001	  0.00000E+000	  0.00000E+000
  1.20000E-002	  8.95779E-001	  8.96301E-001	  0.00000E+000	  0.00000E+000
  1.28000E-002	  8.94645E-001	  8.95134E-001	  0.00000E+000	  0.00000E+000
  1.44000E-002	  8.92127E-001	  8.90689E-001	  0.00000E+000	  0.00000E+000
  1.60000E-002	  8.90558E-001	  8.90709E-001	  0.00000E+000	  0.00000E+000
  1.76000E-002	  8.89270E-001	  8.89630E-001	  0.00000E+000	  0.00000E+000
  1.92000E-002	  8.88270E-001	  8.88098E-001	  0.00000E+000	  0.00000E+000
  2.08000E-002	  8.85531E-001	  8.86838E-001	  0.00000E+000	  0.00000E+000
  2.24000E-002	  8.85091E-001	  8.84874E-001	  0.00000E+000	  0.00000E+000
  2.40000E-002	  8.82106E-001	  8.82010E-001	  0.00000E+000	  0.00000E+000
  2.56000E-002	  8.81177E-001	  8.81717E-001	  0.00000E+000	  0.00000E+000
  2.88000E-002	  8.77992E-001	  8.78225E-001	  0.00000E+000	  0.00000E+000
  3.20000E-002	  8.75489E-001	  8.76018E-001	  0.00000E+000	  0.00000E+000
  3.52000E-002	  8.72406E-001	  8.72375E-001	  0.00000E+000	  0.00000E+000
  3.84000E-002	  8.69046E-001	  8.69145E-001	  0.00000E+000	  0.00000E+000
  4.16000E-002	  8.65907E-001	  8.65915E-001	  0.00000E+000	  0.00000E+000
  4.48000E-002	  8.62726E-001	  8.62821E-001	  0.00000E+000	  0.00000E+000
  4.80000E-002	  8.60070E-001	  8.60545E-001	  0.00000E+000	  0.00000E+000
  5.12000E-002	  8.56565E-001	  8.56777E-001	  0.00000E+000	  0.00000E+000
  5.76000E-002	  8.50643E-001	  8.50532E-001	  0.00000E+000	  0.00000E+000
  6.40000E-002	  8.44375E-001	  8.44508E-001	  0.00000E+000	  0.00000E+000
  7.04000E-002	  8.38670E-001	  8.38663E-001	  0.00000E+000	  0.00000E+000
  7.68000E-002	  8.33138E-001	  8.32771E-001	  0.00000E+000	  0.00000E+000
  8.32000E-002	  8.27032E-001	  8.27138E-001	  0.00000E+000	  0.00000E+000
  8.96000E-002	  8.21122E-001	  8.21176E-001	  0.00000E+000	  0.00000E+000
  9.60000E-002	  8.15850E-001	  8.15711E-001	  0.00000E+000	  0.00000E+000
  1.02400E-001	  8.10401E-001	  8.10211E-001	  0.00000E+000	  0.00000E+000
  1.15200E-001	  7.98807E-001	  7.98727E-001	  0.00000E+000	  0.00000E+000
  1.28000E-001	  7.87258E-001	  7.87123E-001	  0.00000E+000	  0.00000E+000
  1.40800E-001	  7.76312E-001	  7.76630E-001	  0.00000E+000	  0.00000E+000
  1.53600E-001	  7.65287E-001	  7.65427E-001	  0.00000E+000	  0.00000E+000
  1.66400E-001	  7.54920E-001	  7.55392E-001	  0.00000E+000	  0.00000E+000
  1.79200E-001	  7.44701E-001	  7.45096E-001	  0.00000E+000	  0.00000E+000
  1.92000E-001	  7.34328E-001	  7.34632E-001	  0.00000E+000	  0.00000E+000
  2.04800E-001	  7.24178E-001	  7.24580E-001	  0.00000E+000	  0.00000E+000
  2.30400E-001	  7.04571E-001	  7.04983E-001	  0.00000E+000	  0.00000E+000
  2.56000E-001	  6.85637E-001	  6.86162E-001	  0.00000E+000	  0.00000E+000
  2.81600E-001	  6.67154E-001	  6.67444E-001	  0.00000E+000	  0.00000E+000
  3.07200E-001	  6.48900E-001	  6.49584E-001	  0.00000E+000	  0.00000E+000
  3.32800E-001	  6.31468E-001	  6.31878E-001	  0.00000E+000	  0.00000E+000
  3.58400E-001	  6.14253E-001	  6.14686E-001	  0.00000E+000	  0.00000E+000
  3.84000E-001	  5.97714E-001	  5.98441E-001	  0.00000E+000	  0.00000E+000
  4.09600E-001	  5.81971E-001	  5.82515E-001	  0.00000E+000	  0.00000E+000
  4.60800E-001	  5.50837E-001	  5.51415E-001	  0.00000E+000	  0.00000E+000
  5.12000E-001	  5.21787E-001	  5.22631E-001	  0.00000E+000	  0.00000E+000
  5.63200E-001	  4.93945E-001	  4.94851E-001	  0.00000E+000	  0.00000E+000
  6.14400E-001	  4.67706E-001	  4.68776E-001	  0.00000E+000	  0.00000E+000
  6.65600E-001	  4.43000E-001	  4.44008E-001	  0.00000E+000	  0.00000E+000
  7.16800E-001	  4.19024E-001	  4.19764E-001	  0.00000E+000	  0.00000E+000
  7.68000E-001	  3.96529E-001	  3.96798E-001	  0.00000E+000	  0.00000E+000
  8.19200E-001	  3.75812E-001	  3.75997E-001	  0.00000E+000	  0.00000E+000
  9.21600E-001	  3.36651E-001	  3.36716E-001	  0.00000E+000	  0.00000E+000
  1.02400E+000	  3.01040E-001	  3.01111E-001	  0.00000E+000	  0.00000E+000
  1.12640E+000	  2.68689E-001	  2.68876E-001	  0.00000E+000	  0.00000E+000
  1.22880E+000	  2.39802E-001	  2.40287E-001	  0.00000E+000	  0.00000E+000
  1.33120E+000	  2.13959E-001	  2.14399E-001	  0.00000E+000	  0.00000E+000
  1.43360E+000	  1.90705E-001	  1.91164E-001	  0.00000E+000	  0.00000E+000
  1.53600E+000	  1.69673E-001	  1.69847E-001	  0.00000E+000	  0.00000E+000
  1.63840E+000	  1.51698E-001	  1.51744E-001	  0.00000E+000	  0.00000E+000
  1.84320E+000	  1.21798E-001	  1.22146E-001	  0.00000E+000	  0.00000E+000
  2.04800E+000	  9.91488E-002	  9.96115E-002	  0.00000E+000	  0.00000E+000
  2.25280E+000	  8.16104E-002	  8.20550E-002	  0.00000E+000	  0.00000E+000
  2.45760E+000	  6.79100E-002	  6.81298E-002	  0.00000E+000	  0.00000E+000
  2.66240E+000	  5.60224E-002	  5.65021E-002	  0.00000E+000	  0.00000E+000
  2.86720E+000	  4.40155E-002	  4.46348E-002	  0.00000E+000	  0.00000E+000
  3.07200E+000	  3.52240E-002	  3.59538E-002	  0.00000E+000	  0.00000E+000
  3.27680E+000	  2.69222E-002	  2.74426E-002	  0.00000E+000	  0.00000E+000
  3.68640E+000	  1.33441E-002	  1.38719E-002	  0.00000E+000	  0.00000E+000
  4.09600E+000	  5.73621E-003	  5.80979E-003	  0.00000E+000	  0.00000E+000
  4.50560E+000	  7.42553E-004	  8.36649E-004	  0.00000E+000	  0.00000E+000
  4.91520E+000	  1.92439E-003	  2.01418E-003	  0.00000E+000	  0.00000E+000
  5.32480E+000	  4.42773E-003	  4.28953E-003	  0.00000E+000	  0.00000E+000
  5.73440E+000	  9.45382E-003	  9.56314E-003	  0.00000E+000	  0.00000E+000
  6.14400E+000	  1.52705E-002	  1.54773E-002	  0.00000E+000	  0.00000E+000
  6.55360E+000	  1.88549E-002	  1.89644E-002	  0.00000E+000	  0.00000E+000
  7.37280E+000	  1.77768E-002	  1.76100E-002	  0.00000E+000	  0.00000E+000
  8.19200E+000	  7.89341E-003	  7.98055E-003	  0.00000E+000	  0.00000E+000
  9.01120E+000	 -1.30948E-003	 -1.08820E-003	  0.00000E+000	  0.00000E+000
  9.83040E+000	 -2.79256E-003	 -2.44761E-003	  0.00000E+000	  0.00000E+000
  1.06496E+001	  2.87972E-003	  3.39296E-003	  0.00000E+000	  0.00000E+000
  1.14688E+001	  5.26550E-003	  5.19786E-003	  0.00000E+000	  0.00000E+000
  1.22880E+001	  4.37476E-003	  4.11172E-003	  0.00000E+000	  0.00000E+000
  1.31072E+001	 -2.19484E-003	 -2.22259E-003	  0.00000E+000	  0.00000E+000
  1.47456E+001	 -9.19444E-003	 -9.59609E-003	  0.00000E+000	  0.00000E+000
  1.63840E+001	 -8.87515E-003	 -9.53577E-003	  0.00000E+000	  0.00000E+000
  1.80224E+001	 -6.61003E-003	 -6.75895E-003	  0.00000E+000	  0.00000E+000
  1.96608E+001	 -5.01767E-003	 -5.23666E-003	  0.00000E+000	  0.00000E+000
  2.12992E+001	 -1.12292E-002	 -1.12258E-002	  0.00000E+000	  0.00000E+000
  2.29376E+001	  4.34308E-003	  4.83963E-003	  0.00000E+000	  0.00000E+000
  2.45760E+001	  2.01668E-004	 -3.24069E-006	  0.00000E+000	  0.00000E+000
  2.62144E+001	  2.67792E-003	  2.61298E-003	  0.00000E+000	  0.00000E+000
  2.94912E+001	  1.70063E-002	  1.62991E-002	  0.00000E+000	  0.00000E+000
  3.27680E+001	  5.54234E-003	  5.73149E-003	  0.00000E+000	  0.00000E+000
  3.60448E+001	  1.58520E-002	  1.58805E-002	  0.00000E+000	  0.00000E+000
  3.93216E+001	  4.50404E-003	  4.75793E-003	  0.00000E+000	  0.00000E+000
  4.25984E+001	  6.55393E-003	  6.45250E-003	  0.00000E+000	  0.00000E+000
  4.58752E+001	  1.40220E-002	  1.40557E-002	  0.00000E+000	  0.00000E+000
  4.91520E+001	  1.19578E-002	  1.21419E-002	  0.00000E+000	  0.00000E+000
  5.24288E+001	 -1.52808E-003	 -1.61124E-003	  0.00000E+000	  0.00000E+000
  5.89824E+001	 -2.86394E-003	 -2.59655E-003	  0.00000E+000	  0.00000E+000
  6.55360E+001	  4.18943E-003	  4.28832E-003	  0.00000E+000	  0.00000E+000
  7.20896E+001	  6.52598E-003	  6.69432E-003	  0.00000E+000	  0.00000E+000
  7.86432E+001	  9.19048E-003	  8.95405E-003	  0.00000E+000	  0.00000E+000
  8.51968E+001	  8.50524E-003	  8.50820E-003	  0.00000E+000	  0.00000E+000
  9.17504E+001	 -3.71185E-004	 -7.61976E-004	  0.00000E+000	  0.00000E+000
  9.83040E+001	 -1.38701E-003	 -1.67658E-003	  0.00000E+000	  0.00000E+000
  1.04858E+002	  7.63674E-003	  7.46305E-003	  0.00000E+000	  0.00000E+000
  1.17965E+002	 -1.52456E-003	 -1.51967E-003	  0.00000E+000	  0.00000E+000
  1.31072E+002	 -5.79611E-005	  9.22313E-005	  0.00000E+000	  0.00000E+000
  1.44179E+002	 -6.30406E-003	 -6.45233E-003	  0.00000E+000	  0.00000E+000
  1.57286E+002	  1.44049E-003	  1.34808E-003	  0.00000E+000	  0.00000E+000
  1.70394E+002	 -1.74831E-003	 -1.68458E-003	  0.00000E+000	  0.00000E+000
  1.83501E+002	 -4.77162E-004	 -4.18157E-004	  0.00000E+000	  0.00000E+000
  1.96608E+002	  1.74543E-004	  9.23371E-005	  0.00000E+000	  0.00000E+000
  2.09715E+002	 -4.04934E-004	 -3.96651E-004	  0.00000E+000	  0.00000E+000
  2.35930E+002	 -4.81475E-004	 -3.38336E-004	  0.00000E+000	  0.00000E+000
  2.62144E+002	 -8.47858E-005	 -7.00458E-005	  0.00000E+000	  0.00000E+000
  2.88358E+002	 -1.40204E-004	 -1.09848E-004	  0.00000E+000	  0.00000E+000
  3.14573E+002	 -4.66832E-003	 -4.65328E-003	  0.00000E+000	  0.00000E+000
  3.40787E+002	  4.14958E-003	  4.22732E-003	  0.00000E+000	  0.00000E+000
  3.67002E+002	 -3.86871E-004	 -4.01137E-004	  0.00000E+000	  0.00000E+000
  3.93216E+002	 -6.76689E-004	 -7.50429E-004	  0.00000E+000	  0.00000E+000
  4.19430E+002	 -5.54137E-003	 -5.54342E-003	  0.00000E+000	  0.00000E+000
  4.71859E+002	 -1.11997E-003	 -1.12011E-003	  0.00000E+000	  0.00000E+000
  5.24288E+002	 -2.58624E-003	 -2.40073E-003	  0.00000E+000	  0.00000E+000
  5.76717E+002	 -1.27214E-003	 -1.28584E-003	  0.00000E+000	  0.00000E+000
  6.29146E+002	 -3.19254E-003	 -3.29847E-003	  0.00000E+000	  0.00000E+000
  6.81574E+002	 -1.32172E-004	 -1.64440E-004	  0.00000E+000	  0.00000E+000
  7.34003E+002	 -3.08755E-003	 -3.03149E-003	  0.00000E+000	  0.00000E+000
  7.86432E+002	  3.37286E-003	  3.45270E-003	  0.00000E+000	  0.00000E+000
  8.38861E+002	  2.38310E-003	  2.52363E-003	  0.00000E+000	  0.00000E+000
  9.43718E+002	 -2.27829E-003	 -2.39624E-003	  0.00000E+000	  0.00000E+000
  1.04858E+003	 -6.12211E-003	 -6.12374E-003	  0.00000E+000	  0.00000E+000
  1.15343E+003	 -1.74195E-003	 -1.83742E-003	  0.00000E+000	  0.00000E+000
  1.25829E+003	  1.73074E-004	  7.59240E-005	  0.00000E+000	  0.00000E+000
  1.36315E+003	  1.50943E-003	  1.62181E-003	  0.00000E+000	  0.00000E+000
  1.46801E+003	  2.67264E-003	  2.66145E-003	  0.00000E+000	  0.00000E+000
  1.57286E+003	 -5.05039E-004	 -7.69579E-004	  0.00000E+000	  0.00000E+000
  1.67772E+003	  3.36620E-004	  2.98801E-004	  0.00000E+000	  0.00000E+000
  1.88744E+003	  3.17530E-004	  3.39309E-004	  0.00000E+000	  0.00000E+000
  2.09715E+003	  5.67847E-003	  5.59914E-003	  0.00000E+000	  0.00000E+000
  2.30687E+003	 -1.30240E-003	 -1.26635E-003	  0.00000E+000	  0.00000E+000
  2.51658E+003	 -1.88465E-003	 -1.96695E-003	  0.00000E+000	  0.00000E+000
  2.72630E+003	 -3.88220E-003	 -3.76256E-003	  0.00000E+000	  0.00000E+000
  2.93601E+003	 -2.24444E-003	 -2.26337E-003	  0.00000E+000	  0.00000E+000
  3.14573E+003	  3.73811E-004	  3.86196E-004	  0.00000E+000	  0.00000E+000

"Count Rate"
       0.03906	     461.10623	     471.74106	     461.10623	     471.74106
       0.07813	     410.53973	     429.61081	     410.53973	     429.61081
       0.11719	     383.21130	     394.63864	     383.21130	     394.63864
       0.15625	     397.85974	     411.81796	     397.85974	     411.81796
       0.19531	     443.79910	     452.69553	     443.79910	     452.69553
       0.23438	     358.89951	     367.25909	     358.89951	     367.25909
       0.27344	     346.01501	     351.63919	     346.01501	     351.63919
       0.31250	     314.36621	     319.09564	     314.36621	     319.09564
       0.35156	     437.71475	     444.05475	     437.71475	     444.05475
       0.39063	     383.56921	     384.31058	     383.56921	     384.31058
       0.42969	     339.52164	     344.89017	     339.52164	     344.89017
       0.46875	     517.75708	     529.56787	     517.75708	     529.56787
       0.50781	     459.39340	     465.11984	     459.39340	     465.11984
       0.54688	     582.33295	     603.44916	     582.33295	     603.44916
       0.58594	     381.75415	     391.00848	     381.75415	     391.00848
       0.62500	     297.67261	     303.27124	     297.67261	     303.27124
       0.66406	     361.48151	     365.82748	     361.48151	     365.82748
       0.70313	     373.70132	     385.81888	     373.70132	     385.81888
       0.74219	     356.57315	     368.58844	     356.57315	     368.58844
       0.78125	     320.70621	     334.20422	     320.70621	     334.20422
       0.82031	     343.45856	     346.67969	     343.45856	     346.67969
       0.85938	     321.14081	     330.29288	     321.14081	     330.29288
       0.89844	     331.26431	     336.09601	     331.26431	     336.09601
       0.93750	     342.20590	     354.29791	     342.20590	     354.29791
       0.97656	     415.70374	     416.90527	     415.70374	     416.90527
       1.01563	     468.23871	     472.89145	     468.23871	     472.89145
       1.05469	     337.01633	     342.18036	     337.01633	     342.18036
       1.09375	     300.99600	     303.96149	     300.99600	     303.96149
       1.13281	     376.38559	     379.45334	     376.38559	     379.45334
       1.17188	     360.33112	     374.28931	     360.33112	     374.28931
       1.21094	     370.07117	     384.51511	     370.07117	     384.51511
       1.25000	     349.54291	     357.64685	     349.54291	     357.64685
       1.28906	     286.16861	     296.49664	     286.16861	     296.49664
       1.32813	     416.26617	     427.61679	     416.26617	     427.61679
       1.36719	     449.14206	     462.35889	     449.14206	     462.35889
       1.40625	     506.07413	     518.08942	     506.07413	     518.08942
       1.44531	     384.43842	     386.25348	     384.43842	     386.25348
       1.48438	     320.22046	     328.73343	     320.22046	     328.73343
       1.52344	     557.33087	     562.62274	     557.33087	     562.62274
       1.56250	     381.39624	     385.94672	     381.39624	     385.94672
       1.60156	     548.46002	     559.52942	     548.46002	     559.52942
       1.64063	     398.14096	     404.04636	     398.14096	     404.04636
       1.67969	     386.07452	     395.25217	     386.07452	     395.25217
       1.71875	     456.22342	     467.36954	     456.22342	     467.36954
       1.75781	     259.01913	     262.49591	     259.01913	     262.49591
       1.79688	     481.50668	     486.28723	     481.50668	     486.28723
       1.83594	     411.81796	     417.36545	     411.81796	     417.36545
       1.87500	     315.97678	     325.05215	     315.97678	     325.05215
       1.91406	     442.08627	     450.88046	     442.08627	     450.88046
       1.95313	     417.08423	     428.10251	     417.08423	     428.10251
       1.99219	     398.54999	     405.12006	     398.54999	     405.12006
       2.03125	     274.10217	     281.31137	     274.10217	     281.31137
       2.07031	     547.41187	     562.39264	     547.41187	     562.39264
       2.10938	     311.47742	     315.00531	     311.47742	     315.00531
       2.14844	     373.26672	     386.43243	     373.26672	     386.43243
       2.18750	     434.26355	     450.62482	     434.26355	     450.62482
       2.22656	     371.83511	     380.14359	     371.83511	     380.14359
       2.26563	     550.01941	     563.21069	     550.01941	     563.21069
       2.30469	     457.93625	     468.85226	     457.93625	     468.85226
       2.34375	     564.15662	     580.05768	     564.15662	     580.05768
       2.38281	     434.23798	     435.95081	     434.23798	     435.95081
       2.42188	     352.27832	     361.35370	     352.27832	     361.35370
       2.46094	     412.30368	     416.29172	     412.30368	     416.29172
       2.50000	     526.29559	     541.42975	     526.29559	     541.42975
       2.53906	     366.92676	     374.92844	     366.92676	     374.92844
       2.57813	     329.65375	     334.76666	     329.65375	     334.76666
       2.61719	     312.67896	     317.30612	     312.67896	     317.30612
       2.65625	     305.03519	     313.26694	     305.03519	     313.26694
       2.69531	     424.47235	     434.62146	     424.47235	     434.62146
       2.73438	     442.95547	     451.85190	     442.95547	     451.85190
       2.77344	     405.29901	     408.03439	     405.29901	     408.03439
       2.81250	     460.90170	     470.74405	     460.90170	     470.74405
       2.85156	     475.19226	     485.11127	     475.19226	     485.11127
       2.89063	     397.93643	     411.51117	     397.93643	     411.51117
       2.92969	     400.82523	     401.20871	     400.82523	     401.20871
       2.96875	     396.35144	     402.28241	     396.35144	     402.28241
       3.00781	     378.27737	     389.75583	     378.27737	     389.75583
       3.04688	     395.99353	     402.81924	     395.99353	     402.81924
       3.08594	     405.68246	     409.03143	     405.68246	     409.03143
       3.12500	     404.63434	     410.69312	     404.63434	     410.69312
       3.16406	     301.12381	     305.87881	     301.12381	     305.87881
       3.20313	     340.92770	     351.97153	     340.92770	     351.97153
       3.24219	     402.64032	     409.69611	     402.64032	     409.69611
       3.28125	     363.60336	     370.14786	     363.60336	     370.14786
       3.32031	     328.73343	     338.55020	     328.73343	     338.55020
       3.35938	     497.79123	     501.93268	     497.79123	     501.93268
       3.39844	     420.02414	     426.05734	     420.02414	     426.05734
       3.43750	     332.74707	     331.44327	     332.74707	     331.44327
       3.47656	     324.28522	     333.28391	     324.28522	     333.28391
       3.51563	     336.83737	     342.69165	     336.83737	     342.69165
       3.55469	     486.18497	     497.04987	     486.18497	     497.04987
       3.59375	     692.56689	     716.18848	     692.56689	     716.18848
       3.63281	     630.18958	     640.00635	     630.18958	     640.00635
       3.67188	     352.15048	     363.80789	     352.15048	     363.80789
       3.71094	     583.76453	     596.67456	     583.76453	     596.67456
       3.75000	     290.10553	     299.33432	     290.10553	     299.33432
       3.78906	     440.70578	     455.12415	     440.70578	     455.12415
       3.82813	     430.40332	     440.62909	     430.40332	     440.62909
       3.86719	     430.01984	     436.79443	     430.01984	     436.79443
       3.90625	     445.53748	     456.63245	     445.53748	     456.63245
       3.94531	     306.59460	     311.14508	     306.59460	     311.14508
       3.98438	     366.31320	     372.49982	     366.31320	     372.49982
       4.02344	     358.00476	     357.39120	     358.00476	     357.39120
       4.06250	     418.51584	     421.63470	     418.51584	     421.63470
       4.10156	     315.87451	     318.12418	     315.87451	     318.12418
       4.14063	     464.40405	     479.58936	     464.40405	     479.58936
       4.17969	     348.03461	     350.28427	     348.03461	     350.28427
       4.21875	     384.41284	     395.04767	     384.41284	     395.04767
       4.25781	     434.62146	     442.34192	     434.62146	     442.34192
       4.29688	     428.58823	     432.57629	     428.58823	     432.57629
       4.33594	     347.19098	     355.11597	     347.19098	     355.11597
       4.37500	     333.82077	     333.43729	     333.82077	     333.43729
       4.41406	     504.74478	     513.99908	     504.74478	     513.99908
       4.45313	     362.12064	     372.29529	     362.12064	     372.29529
       4.49219	     432.52518	     437.71475	     432.52518	     437.71475
       4.53125	     448.32401	     449.70447	     448.32401	     449.70447
       4.57031	     342.07809	     342.56381	     342.07809	     342.56381
       4.60938	     535.70337	     550.93976	     535.70337	     550.93976
       4.64844	     344.78793	     348.31583	     344.78793	     348.31583
       4.68750	     213.97456	     219.85439	     213.97456	     219.85439
       4.72656	     264.10648	     270.93219	     264.10648	     270.93219
       4.76563	     361.07248	     371.60504	     361.07248	     371.60504
       4.80469	     418.92487	     430.32663	     418.92487	     430.32663
       4.84375	     396.70935	     400.18613	     396.70935	     400.18613
       4.88281	     363.68005	     364.26804	     363.68005	     364.26804
       4.92188	     295.80640	     301.14938	     295.80640	     301.14938
       4.96094	     378.99316	     389.65356	     378.99316	     389.65356
       5.00000	     280.87677	     285.58063	     280.87677	     285.58063
       5.03906	     328.60562	     328.93796	     328.60562	     328.93796
       5.07813	     309.73904	     322.03555	     309.73904	     322.03555
       5.11719	     438.40500	     451.39172	     438.40500	     451.39172
       5.15625	     406.27045	     421.83920	     406.27045	     421.83920
       5.19531	     301.71179	     302.75995	     301.71179	     302.75995
       5.23438	     347.01202	     351.38354	     347.01202	     351.38354
       5.27344	     353.58209	     364.57483	     353.58209	     364.57483
       5.31250	     317.05048	     324.87320	     317.05048	     324.87320
       5.35156	     388.40091	     392.59348	     388.40091	     392.59348
       5.39063	     475.95920	     490.76102	     475.95920	     490.76102
       5.42969	     477.28854	     489.73843	     477.28854	     489.73843
       5.46875	     479.28256	     482.01797	     479.28256	     482.01797
       5.50781	     345.73380	     345.88721	     345.73380	     345.88721
       5.54688	     416.64963	     426.41525	     416.64963	     426.41525
       5.58594	     412.48264	     424.08890	     412.48264	     424.08890
       5.62500	     269.75623	     280.74893	     269.75623	     280.74893
       5.66406	     452.20981	     458.83099	     452.20981	     458.83099
       5.70313	     517.11798	     515.40515	     517.11798	     515.40515
       5.74219	     718.94940	     737.50922	     718.94940	     737.50922
       5.78125	     476.41934	     481.73676	     476.41934	     481.73676
       5.82031	     419.35947	     433.98233	     419.35947	     433.98233
       5.85938	     294.88608	     296.39438	     294.88608	     296.39438
       5.89844	     339.47052	     345.40146	     339.47052	     345.40146
       5.93750	     354.55356	     358.74612	     354.55356	     358.74612
       5.97656	     446.58563	     461.97543	     446.58563	     461.97543
       6.01563	     344.55783	     358.10699	     344.55783	     358.10699
       6.05469	     382.44437	     393.02808	     382.44437	     393.02808
       6.09375	     370.19901	     379.06985	     370.19901	     379.06985
       6.13281	     467.52292	     479.94724	     467.52292	     479.94724
       6.17188	     528.39191	     549.55927	     528.39191	     549.55927
       6.21094	     421.55801	     421.78809	     421.55801	     421.78809
       6.25000	     360.20331	     370.22458	     360.20331	     370.22458
       6.28906	     397.34845	     402.74255	     397.34845	     402.74255
       6.32813	     319.40240	     329.42368	     319.40240	     329.42368
       6.36719	     410.69312	     421.81366	     410.69312	     421.81366
       6.40625	     367.71924	     367.20795	     367.71924	     367.20795
       6.44531	     422.70840	     436.23203	     422.70840	     436.23203
       6.48438	     325.46118	     333.99973	     325.46118	     333.99973
       6.52344	     468.67331	     484.24207	     468.67331	     484.24207
       6.56250	     501.06348	     513.41113	     501.06348	     513.41113
       6.60156	     368.94635	     376.61569	     368.94635	     376.61569
       6.64063	     453.99930	     469.38913	     453.99930	     469.38913
       6.67969	     308.43524	     314.00830	     308.43524	     314.00830
       6.71875	     322.52127	     329.90939	     322.52127	     329.90939
       6.75781	     373.47125	     376.99915	     373.47125	     376.99915
       6.79688	     430.22437	     441.11484	     430.22437	     441.11484
       6.83594	     441.93289	     447.99167	     441.93289	     447.99167
       6.87500	     425.44382	     425.72501	     425.44382	     425.72501
       6.91406	     370.63361	     376.64124	     370.63361	     376.64124
       6.95313	     439.70877	     453.00229	     439.70877	     453.00229
       6.99219	     401.82224	     409.08255	     401.82224	     409.08255
       7.03125	     431.37476	     435.87411	     431.37476	     435.87411
       7.07031	     338.78027	     342.18036	     338.78027	     342.18036
       7.10938	     296.49664	     303.04117	     296.49664	     303.04117
       7.14844	     373.42014	     385.35873	     373.42014	     385.35873
       7.18750	     352.78961	     362.35071	     352.78961	     362.35071
       7.22656	     361.45596	     368.07715	     361.45596	     368.07715
       7.26563	     349.77298	     354.70694	     349.77298	     354.70694
       7.30469	     454.91965	     468.69888	     454.91965	     468.69888
       7.34375	     439.17194	     438.25162	     439.17194	     438.25162
       7.38281	     396.24918	     413.14731	     396.24918	     413.14731
       7.42188	     239.28339	     243.68047	     239.28339	     243.68047
       7.46094	     439.65765	     447.71045	     439.65765	     447.71045
       7.50000	     413.30069	     421.78809	     413.30069	     421.78809
       7.53906	     358.74612	     363.93570	     358.74612	     363.93570
       7.57813	     480.07507	     497.04987	     480.07507	     497.04987
       7.61719	     549.91718	     558.30231	     549.91718	     558.30231
       7.65625	     664.24146	     681.72754	     664.24146	     681.72754
       7.69531	     432.29507	     433.01089	     432.29507	     433.01089
       7.73438	     372.98553	     382.39325	     372.98553	     382.39325
       7.77344	     494.31448	     498.68600	     494.31448	     498.68600
       7.81250	     331.64780	     338.47351	     331.64780	     338.47351
       7.85156	     493.11295	     501.11462	     493.11295	     501.11462
       7.89063	     442.85321	     447.99167	     442.85321	     447.99167
       7.92969	     395.58450	     406.96069	     395.58450	     406.96069
       7.96875	     367.97488	     380.85938	     367.97488	     380.85938
       8.00781	     332.67038	     340.74875	     332.67038	     340.74875
       8.04688	     362.70862	     369.53433	     362.70862	     369.53433
       8.08594	     420.66324	     429.76419	     420.66324	     429.76419
       8.12500	     318.09863	     325.74240	     318.09863	     325.74240
       8.16406	     354.45129	     363.27103	     354.45129	     363.27103
       8.20313	     444.36151	     452.95117	     444.36151	     452.95117
       8.24219	     521.89850	     531.02502	     521.89850	     531.02502
       8.28125	     402.43579	     406.57724	     402.43579	     406.57724
       8.32031	     531.48523	     540.40723	     531.48523	     540.40723
       8.35938	     376.82019	     390.82953	     376.82019	     390.82953
       8.39844	     358.89951	     366.72223	     358.89951	     366.72223
       8.43750	     476.70056	     489.81512	     476.70056	     489.81512
       8.47656	     246.90160	     248.38432	     246.90160	     248.38432
       8.51563	     307.56607	     311.11954	     307.56607	     311.11954
       8.55469	     302.04413	     304.11487	     302.04413	     304.11487
       8.59375	     343.33075	     353.27533	     343.33075	     353.27533
       8.63281	     472.55911	     487.61658	     472.55911	     487.61658
       8.67188	     311.34961	     317.89410	     311.34961	     317.89410
       8.71094	     329.62820	     334.61328	     329.62820	     334.61328
       8.75000	     449.26990	     457.34827	     449.26990	     457.34827
       8.78906	     344.48114	     350.71887	     344.48114	     350.71887
       8.82813	     379.24881	     388.40091	     379.24881	     388.40091
       8.86719	     410.20740	     412.63602	     410.20740	     412.63602
       8.90625	     356.57315	     363.62894	     356.57315	     363.62894
       8.94531	     396.09579	     405.40128	     396.09579	     405.40128
       8.98438	     450.72705	     460.64609	     450.72705	     460.64609
       9.02344	     480.33072	     489.68732	     480.33072	     489.68732
       9.06250	     440.91031	     448.09393	     440.91031	     448.09393
       9.10156	     633.87091	     642.58838	     633.87091	     642.58838
       9.14063	     541.63428	     551.52777	     541.63428	     551.52777
       9.17969	     523.25342	     543.57721	     523.25342	     543.57721
       9.21875	     443.97806	     438.40500	     443.97806	     438.40500
       9.25781	     366.41547	     370.22458	     366.41547	     370.22458
       9.29688	     557.84216	     569.26947	     557.84216	     569.26947
       9.33594	     416.41956	     429.20178	     416.41956	     429.20178
       9.37500	     492.42270	     501.29358	     492.42270	     501.29358
       9.41406	     346.73083	     355.32050	     346.73083	     355.32050
       9.45313	     383.26245	     387.73624	     383.26245	     387.73624
       9.49219	     518.03827	     536.70038	     518.03827	     536.70038
       9.53125	     316.53918	     329.52594	     316.53918	     329.52594
       9.57031	     424.72800	     441.24265	     424.72800	     441.24265
       9.60938	     328.37555	     339.57278	     328.37555	     339.57278
       9.64844	     412.96835	     424.83026	     412.96835	     424.83026
       9.68750	     368.48618	     374.67279	     368.48618	     374.67279
       9.72656	     447.71045	     457.96179	     447.71045	     457.96179
       9.76563	     371.01706	     376.64124	     371.01706	     376.64124
       9.80469	     417.69778	     422.75955	     417.69778	     422.75955
       9.84375	     365.41846	     367.54028	     365.41846	     367.54028
       9.88281	     425.95511	     441.70282	     425.95511	     441.70282

Monitor Diode	 152254.60

"Cumulant 1.Order"
FluctuationFreq. [1/ms]	 5.4184E-001
DiffCoefficient [µm²/s]	 1.8743E+000
Hydrodyn. Radius [nm]	 1.3005E+002

"Cumulant 2.Order"
FluctuationFreq. [1/ms]	 5.4078E-001
DiffCoefficient [µm²/s]	 1.8706E+000
Hydrodyn. Radius [nm]	 1.3030E+002
Expansion Parameter µ2	-1.7877E-003

"Cumulant 3.Order"
FluctuationFreq. [1/ms]	 5.4693E-001
DiffCoefficient [µm²/s]	 1.8919E+000
Hydrodyn. Radius [nm]	 1.2883E+002
Expansion Parameter µ2	 2.4768E-002
Expansion Parameter µ3	 3.4866E-002

"StandardDeviation"
  2.50000E-005	  1.85062E-002
  5.00000E-005	  1.85064E-002
  7.50000E-005	  1.85067E-002
  1.00000E-004	  1.85072E-002
  1.25000E-004	  1.85076E-002
  1.50000E-004	  1.85077E-002
  1.75000E-004	  1.85083E-002
  2.00000E-004	  1.85087E-002
  2.25000E-004	  1.85078E-002
  2.50000E-004	  1.85042E-002
  2.75000E-004	  1.85007E-002
  3.00000E-004	  1.85046E-002
  3.25000E-004	  1.85052E-002
  3.50000E-004	  1.84987E-002
  3.75000E-004	  1.85024E-002
  4.00000E-004	  1.78288E-002
  4.50000E-004	  1.78286E-002
  5.00000E-004	  1.78285E-002
  5.50000E-004	  1.78270E-002
  6.00000E-004	  1.78280E-002
  6.50000E-004	  1.78283E-002
  7.00000E-004	  1.78285E-002
  7.50000E-004	  1.78274E-002
  8.00000E-004	  1.74814E-002
  9.00000E-004	  1.74813E-002
  1.00000E-003	  1.74812E-002
  1.10000E-003	  1.74811E-002
  1.20000E-003	  1.74812E-002
  1.30000E-003	  1.74811E-002
  1.40000E-003	  1.74810E-002
  1.50000E-003	  1.74813E-002
  1.60000E-003	  1.73054E-002
  1.80000E-003	  1.73047E-002
  2.00000E-003	  1.73046E-002
  2.20000E-003	  1.73046E-002
  2.40000E-003	  1.73047E-002
  2.60000E-003	  1.73046E-002
  2.80000E-003	  1.73048E-002
  3.00000E-003	  1.73045E-002
  3.20000E-003	  1.72157E-002
  3.60000E-003	  1.72143E-002
  4.00000E-003	  1.72144E-002
  4.40000E-003	  1.72145E-002
  4.80000E-003	  1.72141E-002
  5.20000E-003	  1.72143E-002
  5.60000E-003	  1.72143E-002
  6.00000E-003	  1.72145E-002
  6.40000E-003	  1.71692E-002
  7.20000E-003	  1.71666E-002
  8.00000E-003	  1.71664E-002
  8.80000E-003	  1.71665E-002
  9.60000E-003	  1.71666E-002
  1.04000E-002	  1.71661E-002
  1.12000E-002	  1.71663E-002
  1.20000E-002	  1.71659E-002
  1.28000E-002	  1.71420E-002
  1.44000E-002	  1.71370E-002
  1.60000E-002	  1.71367E-002
  1.76000E-002	  1.71364E-002
  1.92000E-002	  1.71359E-002
  2.08000E-002	  1.71358E-002
  2.24000E-002	  1.71350E-002
  2.40000E-002	  1.71350E-002
  2.56000E-002	  1.71201E-002
  2.88000E-002	  1.71096E-002
  3.20000E-002	  1.71086E-002
  3.52000E-002	  1.71076E-002
  3.84000E-002	  1.71065E-002
  4.16000E-002	  1.71053E-002
  4.48000E-002	  1.71039E-002
  4.80000E-002	  1.71020E-002
  5.12000E-002	  1.70865E-002
  5.76000E-002	  1.70667E-002
  6.40000E-002	  1.70644E-002
  7.04000E-002	  1.70612E-002
  7.68000E-002	  1.70580E-002
  8.32000E-002	  1.70545E-002
  8.96000E-002	  1.70507E-002
  9.60000E-002	  1.70453E-002
  1.02400E-001	  1.70304E-002
  1.15200E-001	  1.69852E-002
  1.28000E-001	  1.69745E-002
  1.40800E-001	  1.69622E-002
  1.53600E-001	  1.69450E-002
  1.66400E-001	  1.69312E-002
  1.79200E-001	  1.69142E-002
  1.92000E-001	  1.68979E-002
  2.04800E-001	  1.68529E-002
  2.30400E-001	  1.67605E-002
  2.56000E-001	  1.67123E-002
  2.81600E-001	  1.66657E-002
  3.07200E-001	  1.66146E-002
  3.32800E-001	  1.65599E-002
  3.58400E-001	  1.64978E-002
  3.84000E-001	  1.64383E-002
  4.09600E-001	  1.63631E-002
  4.60800E-001	  1.61711E-002
  5.12000E-001	  1.60345E-002
  5.63200E-001	  1.58838E-002
  6.14400E-001	  1.57310E-002
  6.65600E-001	  1.55862E-002
  7.16800E-001	  1.54223E-002
  7.68000E-001	  1.52461E-002
  8.19200E-001	  1.50573E-002
  9.21600E-001	  1.46331E-002
  1.02400E+000	  1.43059E-002
  1.12640E+000	  1.39786E-002
  1.22880E+000	  1.36639E-002
  1.33120E+000	  1.32962E-002
  1.43360E+000	  1.29700E-002
  1.53600E+000	  1.26457E-002
  1.63840E+000	  1.22518E-002
  1.84320E+000	  1.16159E-002
  2.04800E+000	  1.10814E-002
  2.25280E+000	  8.63592E-003
  2.45760E+000	  8.63592E-003
  2.66240E+000	  8.63592E-003
  2.86720E+000	  8.63592E-003
  3.07200E+000	  8.63592E-003
  3.27680E+000	  8.65415E-003
  3.68640E+000	  8.65415E-003
  4.09600E+000	  8.65415E-003
  4.50560E+000	  8.65415E-003
  4.91520E+000	  8.65415E-003
  5.32480E+000	  8.65415E-003
  5.73440E+000	  8.65415E-003
  6.14400E+000	  8.65415E-003
  6.55360E+000	  8.42724E-003
  7.37280E+000	  8.42724E-003
  8.19200E+000	  8.42724E-003
  9.01120E+000	  8.42724E-003
  9.83040E+000	  8.42724E-003
  1.06496E+001	  8.42724E-003
  1.14688E+001	  8.42724E-003
  1.22880E+001	  8.42724E-003
  1.31072E+001	  7.88117E-003
  1.47456E+001	  7.88117E-003
  1.63840E+001	  7.88117E-003
  1.80224E+001	  7.88117E-003
  1.96608E+001	  7.88117E-003
  2.12992E+001	  7.88117E-003
  2.29376E+001	  7.88117E-003
  2.45760E+001	  7.88117E-003
  2.62144E+001	  6.87135E-003
  2.94912E+001	  6.87135E-003
  3.27680E+001	  6.87135E-003
  3.60448E+001	  6.87135E-003
  3.93216E+001	  6.87135E-003
  4.25984E+001	  6.87135E-003
  4.58752E+001	  6.87135E-003
  4.91520E+001	  6.87135E-003
  5.24288E+001	  5.64689E-003
  5.89824E+001	  5.64689E-003
  6.55360E+001	  5.64689E-003
  7.20896E+001	  5.64689E-003
  7.86432E+001	  5.64689E-003
  8.51968E+001	  5.64689E-003
  9.17504E+001	  5.64689E-003
  9.83040E+001	  5.64689E-003
  1.04858E+002	  4.29806E-003
  1.17965E+002	  4.29806E-003
  1.31072E+002	  4.29806E-003
  1.44179E+002	  4.29806E-003
  1.57286E+002	  4.29806E-003
  1.70394E+002	  4.29806E-003
  1.83501E+002	  4.29806E-003
  1.96608E+002	  4.29806E-003
  2.09715E+002	  3.14806E-003
  2.35930E+002	  3.14806E-003
  2.62144E+002	  3.14806E-003
  2.88358E+002	  3.14806E-003
  3.14573E+002	  3.14806E-003
  3.40787E+002	  3.14806E-003
  3.67002E+002	  3.14806E-003
  3.93216E+002	  3.14806E-003
  4.19430E+002	  2.26444E-003
  4.71859E+002	  2.26444E-003
  5.24288E+002	  2.26444E-003
  5.76717E+002	  2.26444E-003
  6.29146E+002	  2.26444E-003
  6.81574E+002	  2.26444E-003
  7.34003E+002	  2.26444E-003
  7.86432E+002	  2.26444E-003
  8.38861E+002	  1.61470E-003
  9.43718E+002	  1.61470E-003
  1.04858E+003	  1.61470E-003
  1.15343E+003	  1.61470E-003
  1.25829E+003	  1.61470E-003
  1.36315E+003	  1.61470E-003
  1.46801E+003	  1.61470E-003
  1.57286E+003	  1.61470E-003
  1.67772E+003	  1.14642E-003
  1.88744E+003	  1.14642E-003
  2.09715E+003	  1.14642E-003
  2.30687E+003	  1.14642E-003
  2.51658E+003	  1.14642E-003
  2.72630E+003	  1.14642E-003
  2.93601E+003	  1.14642E-003
  3.14573E+003	  1.14642E-003
