ALV-7004/USB
Date :	"08.06.2022"
Time :	"14:18:52"
Samplename : 	"Samplename needed."
SampMemo(0) : 	""
SampMemo(1) : 	""
SampMemo(2) : 	""
SampMemo(3) : 	""
SampMemo(4) : 	""
SampMemo(5) : 	""
SampMemo(6) : 	""
SampMemo(7) : 	""
SampMemo(8) : 	""
SampMemo(9) : 	""
Temperature [K] :	     297.91353
Viscosity [cp]  :	       0.89489
Refractive Index:	       1.33200
Wavelength [nm] :	     632.80000
Angle [°]       :	      30.00000
Duration [s]    :	        10
FloatDur [ms]   :	         9961
Stop TP [ms]   :	  16777216
Runs            :	         1
Mode            :	"C-CH0/1+1/0"
MeanCR0 [kHz]   :	     585.93663
MeanCR1 [kHz]   :	     582.32144
MeanCR2 [kHz]   :	       0.00000
MeanCR3 [kHz]   :	       0.00000

"Correlation"
  2.50000E-005	  8.93007E-001	  8.95137E-001	  0.00000E+000	  0.00000E+000
  5.00000E-005	  8.89105E-001	  9.00562E-001	  0.00000E+000	  0.00000E+000
  7.50000E-005	  8.87699E-001	  8.84863E-001	  0.00000E+000	  0.00000E+000
  1.00000E-004	  8.92912E-001	  8.88217E-001	  0.00000E+000	  0.00000E+000
  1.25000E-004	  8.86157E-001	  8.86146E-001	  0.00000E+000	  0.00000E+000
  1.50000E-004	  8.88799E-001	  8.94419E-001	  0.00000E+000	  0.00000E+000
  1.75000E-004	  8.97302E-001	  8.94960E-001	  0.00000E+000	  0.00000E+000
  2.00000E-004	  8.87781E-001	  8.81662E-001	  0.00000E+000	  0.00000E+000
  2.25000E-004	  8.89211E-001	  8.90417E-001	  0.00000E+000	  0.00000E+000
  2.50000E-004	  8.89535E-001	  8.87511E-001	  0.00000E+000	  0.00000E+000
  2.75000E-004	  8.89341E-001	  8.86098E-001	  0.00000E+000	  0.00000E+000
  3.00000E-004	  8.91753E-001	  8.93148E-001	  0.00000E+000	  0.00000E+000
  3.25000E-004	  8.87681E-001	  8.86628E-001	  0.00000E+000	  0.00000E+000
  3.50000E-004	  8.87752E-001	  8.93807E-001	  0.00000E+000	  0.00000E+000
  3.75000E-004	  8.92865E-001	  8.92195E-001	  0.00000E+000	  0.00000E+000
  4.00000E-004	  8.91274E-001	  8.91535E-001	  0.00000E+000	  0.00000E+000
  4.50000E-004	  8.87714E-001	  8.87240E-001	  0.00000E+000	  0.00000E+000
  5.00000E-004	  8.90500E-001	  8.92277E-001	  0.00000E+000	  0.00000E+000
  5.50000E-004	  8.88399E-001	  8.89882E-001	  0.00000E+000	  0.00000E+000
  6.00000E-004	  8.90456E-001	  8.88323E-001	  0.00000E+000	  0.00000E+000
  6.50000E-004	  8.85843E-001	  8.85845E-001	  0.00000E+000	  0.00000E+000
  7.00000E-004	  8.89838E-001	  8.94019E-001	  0.00000E+000	  0.00000E+000
  7.50000E-004	  8.93928E-001	  8.97879E-001	  0.00000E+000	  0.00000E+000
  8.00000E-004	  8.94441E-001	  8.92492E-001	  0.00000E+000	  0.00000E+000
  9.00000E-004	  8.91615E-001	  8.90629E-001	  0.00000E+000	  0.00000E+000
  1.00000E-003	  8.89403E-001	  8.87770E-001	  0.00000E+000	  0.00000E+000
  1.10000E-003	  8.92795E-001	  8.92309E-001	  0.00000E+000	  0.00000E+000
  1.20000E-003	  8.90891E-001	  8.91977E-001	  0.00000E+000	  0.00000E+000
  1.30000E-003	  8.89577E-001	  8.88643E-001	  0.00000E+000	  0.00000E+000
  1.40000E-003	  8.88737E-001	  8.86560E-001	  0.00000E+000	  0.00000E+000
  1.50000E-003	  8.90273E-001	  8.89964E-001	  0.00000E+000	  0.00000E+000
  1.60000E-003	  8.90449E-001	  8.90273E-001	  0.00000E+000	  0.00000E+000
  1.80000E-003	  8.90376E-001	  8.90225E-001	  0.00000E+000	  0.00000E+000
  2.00000E-003	  8.89378E-001	  8.87906E-001	  0.00000E+000	  0.00000E+000
  2.20000E-003	  8.90286E-001	  8.88706E-001	  0.00000E+000	  0.00000E+000
  2.40000E-003	  8.88803E-001	  8.88500E-001	  0.00000E+000	  0.00000E+000
  2.60000E-003	  8.89508E-001	  8.90576E-001	  0.00000E+000	  0.00000E+000
  2.80000E-003	  8.88820E-001	  8.87749E-001	  0.00000E+000	  0.00000E+000
  3.00000E-003	  8.91109E-001	  8.92362E-001	  0.00000E+000	  0.00000E+000
  3.20000E-003	  8.90099E-001	  8.91309E-001	  0.00000E+000	  0.00000E+000
  3.60000E-003	  8.89470E-001	  8.89103E-001	  0.00000E+000	  0.00000E+000
  4.00000E-003	  8.90152E-001	  8.89594E-001	  0.00000E+000	  0.00000E+000
  4.40000E-003	  8.90844E-001	  8.90991E-001	  0.00000E+000	  0.00000E+000
  4.80000E-003	  8.90311E-001	  8.89658E-001	  0.00000E+000	  0.00000E+000
  5.20000E-003	  8.89929E-001	  8.89520E-001	  0.00000E+000	  0.00000E+000
  5.60000E-003	  8.89181E-001	  8.89593E-001	  0.00000E+000	  0.00000E+000
  6.00000E-003	  8.89570E-001	  8.89543E-001	  0.00000E+000	  0.00000E+000
  6.40000E-003	  8.89743E-001	  8.89678E-001	  0.00000E+000	  0.00000E+000
  7.20000E-003	  8.88171E-001	  8.89091E-001	  0.00000E+000	  0.00000E+000
  8.00000E-003	  8.89007E-001	  8.88647E-001	  0.00000E+000	  0.00000E+000
  8.80000E-003	  8.89050E-001	  8.88533E-001	  0.00000E+000	  0.00000E+000
  9.60000E-003	  8.89012E-001	  8.88826E-001	  0.00000E+000	  0.00000E+000
  1.04000E-002	  8.88822E-001	  8.89476E-001	  0.00000E+000	  0.00000E+000
  1.12000E-002	  8.88432E-001	  8.88640E-001	  0.00000E+000	  0.00000E+000
  1.20000E-002	  8.88946E-001	  8.88568E-001	  0.00000E+000	  0.00000E+000
  1.28000E-002	  8.88036E-001	  8.87830E-001	  0.00000E+000	  0.00000E+000
  1.44000E-002	  8.88001E-001	  8.88331E-001	  0.00000E+000	  0.00000E+000
  1.60000E-002	  8.87962E-001	  8.87590E-001	  0.00000E+000	  0.00000E+000
  1.76000E-002	  8.87425E-001	  8.87312E-001	  0.00000E+000	  0.00000E+000
  1.92000E-002	  8.87288E-001	  8.87557E-001	  0.00000E+000	  0.00000E+000
  2.08000E-002	  8.87508E-001	  8.87930E-001	  0.00000E+000	  0.00000E+000
  2.24000E-002	  8.87209E-001	  8.86954E-001	  0.00000E+000	  0.00000E+000
  2.40000E-002	  8.86457E-001	  8.86515E-001	  0.00000E+000	  0.00000E+000
  2.56000E-002	  8.86510E-001	  8.86597E-001	  0.00000E+000	  0.00000E+000
  2.88000E-002	  8.85846E-001	  8.85076E-001	  0.00000E+000	  0.00000E+000
  3.20000E-002	  8.85627E-001	  8.85719E-001	  0.00000E+000	  0.00000E+000
  3.52000E-002	  8.85370E-001	  8.85476E-001	  0.00000E+000	  0.00000E+000
  3.84000E-002	  8.84804E-001	  8.84428E-001	  0.00000E+000	  0.00000E+000
  4.16000E-002	  8.84684E-001	  8.84591E-001	  0.00000E+000	  0.00000E+000
  4.48000E-002	  8.83982E-001	  8.83843E-001	  0.00000E+000	  0.00000E+000
  4.80000E-002	  8.83528E-001	  8.83338E-001	  0.00000E+000	  0.00000E+000
  5.12000E-002	  8.83012E-001	  8.82860E-001	  0.00000E+000	  0.00000E+000
  5.76000E-002	  8.82054E-001	  8.82112E-001	  0.00000E+000	  0.00000E+000
  6.40000E-002	  8.81191E-001	  8.81331E-001	  0.00000E+000	  0.00000E+000
  7.04000E-002	  8.80052E-001	  8.80067E-001	  0.00000E+000	  0.00000E+000
  7.68000E-002	  8.79291E-001	  8.79132E-001	  0.00000E+000	  0.00000E+000
  8.32000E-002	  8.78465E-001	  8.78450E-001	  0.00000E+000	  0.00000E+000
  8.96000E-002	  8.77550E-001	  8.77662E-001	  0.00000E+000	  0.00000E+000
  9.60000E-002	  8.76830E-001	  8.76895E-001	  0.00000E+000	  0.00000E+000
  1.02400E-001	  8.75820E-001	  8.75699E-001	  0.00000E+000	  0.00000E+000
  1.15200E-001	  8.73827E-001	  8.73989E-001	  0.00000E+000	  0.00000E+000
  1.28000E-001	  8.72073E-001	  8.72086E-001	  0.00000E+000	  0.00000E+000
  1.40800E-001	  8.70473E-001	  8.70371E-001	  0.00000E+000	  0.00000E+000
  1.53600E-001	  8.68665E-001	  8.68661E-001	  0.00000E+000	  0.00000E+000
  1.66400E-001	  8.66826E-001	  8.66987E-001	  0.00000E+000	  0.00000E+000
  1.79200E-001	  8.64719E-001	  8.64769E-001	  0.00000E+000	  0.00000E+000
  1.92000E-001	  8.63034E-001	  8.63015E-001	  0.00000E+000	  0.00000E+000
  2.04800E-001	  8.61000E-001	  8.60974E-001	  0.00000E+000	  0.00000E+000
  2.30400E-001	  8.57710E-001	  8.57664E-001	  0.00000E+000	  0.00000E+000
  2.56000E-001	  8.54384E-001	  8.54265E-001	  0.00000E+000	  0.00000E+000
  2.81600E-001	  8.50686E-001	  8.50422E-001	  0.00000E+000	  0.00000E+000
  3.07200E-001	  8.47184E-001	  8.47354E-001	  0.00000E+000	  0.00000E+000
  3.32800E-001	  8.43820E-001	  8.43659E-001	  0.00000E+000	  0.00000E+000
  3.58400E-001	  8.40380E-001	  8.40340E-001	  0.00000E+000	  0.00000E+000
  3.84000E-001	  8.36864E-001	  8.36556E-001	  0.00000E+000	  0.00000E+000
  4.09600E-001	  8.33454E-001	  8.33332E-001	  0.00000E+000	  0.00000E+000
  4.60800E-001	  8.26612E-001	  8.26431E-001	  0.00000E+000	  0.00000E+000
  5.12000E-001	  8.19874E-001	  8.19783E-001	  0.00000E+000	  0.00000E+000
  5.63200E-001	  8.13057E-001	  8.13012E-001	  0.00000E+000	  0.00000E+000
  6.14400E-001	  8.06439E-001	  8.06602E-001	  0.00000E+000	  0.00000E+000
  6.65600E-001	  7.99759E-001	  7.99950E-001	  0.00000E+000	  0.00000E+000
  7.16800E-001	  7.93224E-001	  7.93377E-001	  0.00000E+000	  0.00000E+000
  7.68000E-001	  7.87091E-001	  7.87236E-001	  0.00000E+000	  0.00000E+000
  8.19200E-001	  7.80640E-001	  7.80794E-001	  0.00000E+000	  0.00000E+000
  9.21600E-001	  7.68113E-001	  7.68232E-001	  0.00000E+000	  0.00000E+000
  1.02400E+000	  7.56016E-001	  7.56173E-001	  0.00000E+000	  0.00000E+000
  1.12640E+000	  7.43933E-001	  7.44147E-001	  0.00000E+000	  0.00000E+000
  1.22880E+000	  7.31866E-001	  7.32100E-001	  0.00000E+000	  0.00000E+000
  1.33120E+000	  7.19858E-001	  7.20128E-001	  0.00000E+000	  0.00000E+000
  1.43360E+000	  7.08269E-001	  7.08555E-001	  0.00000E+000	  0.00000E+000
  1.53600E+000	  6.96952E-001	  6.97198E-001	  0.00000E+000	  0.00000E+000
  1.63840E+000	  6.85621E-001	  6.85844E-001	  0.00000E+000	  0.00000E+000
  1.84320E+000	  6.64231E-001	  6.64447E-001	  0.00000E+000	  0.00000E+000
  2.04800E+000	  6.43777E-001	  6.44025E-001	  0.00000E+000	  0.00000E+000
  2.25280E+000	  6.24516E-001	  6.24664E-001	  0.00000E+000	  0.00000E+000
  2.45760E+000	  6.06314E-001	  6.06396E-001	  0.00000E+000	  0.00000E+000
  2.66240E+000	  5.87912E-001	  5.87860E-001	  0.00000E+000	  0.00000E+000
  2.86720E+000	  5.69812E-001	  5.69737E-001	  0.00000E+000	  0.00000E+000
  3.07200E+000	  5.52070E-001	  5.52040E-001	  0.00000E+000	  0.00000E+000
  3.27680E+000	  5.34915E-001	  5.34741E-001	  0.00000E+000	  0.00000E+000
  3.68640E+000	  5.02768E-001	  5.02436E-001	  0.00000E+000	  0.00000E+000
  4.09600E+000	  4.72241E-001	  4.71919E-001	  0.00000E+000	  0.00000E+000
  4.50560E+000	  4.43411E-001	  4.43327E-001	  0.00000E+000	  0.00000E+000
  4.91520E+000	  4.16142E-001	  4.16155E-001	  0.00000E+000	  0.00000E+000
  5.32480E+000	  3.90795E-001	  3.90766E-001	  0.00000E+000	  0.00000E+000
  5.73440E+000	  3.66021E-001	  3.65873E-001	  0.00000E+000	  0.00000E+000
  6.14400E+000	  3.41396E-001	  3.41316E-001	  0.00000E+000	  0.00000E+000
  6.55360E+000	  3.18155E-001	  3.18149E-001	  0.00000E+000	  0.00000E+000
  7.37280E+000	  2.76642E-001	  2.76744E-001	  0.00000E+000	  0.00000E+000
  8.19200E+000	  2.40149E-001	  2.40339E-001	  0.00000E+000	  0.00000E+000
  9.01120E+000	  2.07898E-001	  2.08142E-001	  0.00000E+000	  0.00000E+000
  9.83040E+000	  1.80520E-001	  1.80803E-001	  0.00000E+000	  0.00000E+000
  1.06496E+001	  1.57366E-001	  1.57660E-001	  0.00000E+000	  0.00000E+000
  1.14688E+001	  1.37479E-001	  1.37376E-001	  0.00000E+000	  0.00000E+000
  1.22880E+001	  1.19534E-001	  1.19344E-001	  0.00000E+000	  0.00000E+000
  1.31072E+001	  1.05059E-001	  1.05051E-001	  0.00000E+000	  0.00000E+000
  1.47456E+001	  7.88205E-002	  7.93340E-002	  0.00000E+000	  0.00000E+000
  1.63840E+001	  5.65254E-002	  5.67565E-002	  0.00000E+000	  0.00000E+000
  1.80224E+001	  4.00080E-002	  3.98689E-002	  0.00000E+000	  0.00000E+000
  1.96608E+001	  2.82092E-002	  2.82336E-002	  0.00000E+000	  0.00000E+000
  2.12992E+001	  1.79830E-002	  1.82092E-002	  0.00000E+000	  0.00000E+000
  2.29376E+001	  1.33206E-002	  1.34286E-002	  0.00000E+000	  0.00000E+000
  2.45760E+001	  1.34376E-002	  1.33933E-002	  0.00000E+000	  0.00000E+000
  2.62144E+001	  1.52106E-002	  1.48727E-002	  0.00000E+000	  0.00000E+000
  2.94912E+001	  9.18492E-003	  8.90165E-003	  0.00000E+000	  0.00000E+000
  3.27680E+001	 -7.93158E-003	 -8.16181E-003	  0.00000E+000	  0.00000E+000
  3.60448E+001	 -1.66300E-002	 -1.68824E-002	  0.00000E+000	  0.00000E+000
  3.93216E+001	 -2.25952E-002	 -2.28245E-002	  0.00000E+000	  0.00000E+000
  4.25984E+001	 -2.15331E-002	 -2.17861E-002	  0.00000E+000	  0.00000E+000
  4.58752E+001	 -1.76022E-002	 -1.80718E-002	  0.00000E+000	  0.00000E+000
  4.91520E+001	 -1.16249E-002	 -1.18123E-002	  0.00000E+000	  0.00000E+000
  5.24288E+001	 -1.23909E-002	 -1.26953E-002	  0.00000E+000	  0.00000E+000
  5.89824E+001	  1.68193E-002	  1.63918E-002	  0.00000E+000	  0.00000E+000
  6.55360E+001	  3.63773E-002	  3.62855E-002	  0.00000E+000	  0.00000E+000
  7.20896E+001	  3.81527E-002	  3.75711E-002	  0.00000E+000	  0.00000E+000
  7.86432E+001	  2.55391E-002	  2.49726E-002	  0.00000E+000	  0.00000E+000
  8.51968E+001	  1.33278E-002	  1.31050E-002	  0.00000E+000	  0.00000E+000
  9.17504E+001	  2.50715E-003	  2.26961E-003	  0.00000E+000	  0.00000E+000
  9.83040E+001	 -1.20281E-002	 -1.21020E-002	  0.00000E+000	  0.00000E+000
  1.04858E+002	 -1.63975E-003	 -1.98874E-003	  0.00000E+000	  0.00000E+000
  1.17965E+002	 -2.07629E-002	 -2.10421E-002	  0.00000E+000	  0.00000E+000
  1.31072E+002	 -3.27121E-002	 -3.26232E-002	  0.00000E+000	  0.00000E+000
  1.44179E+002	  2.64106E-003	  2.59322E-003	  0.00000E+000	  0.00000E+000
  1.57286E+002	  3.90678E-002	  3.89848E-002	  0.00000E+000	  0.00000E+000
  1.70394E+002	  1.35586E-002	  1.36563E-002	  0.00000E+000	  0.00000E+000
  1.83501E+002	  6.72531E-003	  6.93969E-003	  0.00000E+000	  0.00000E+000
  1.96608E+002	  1.21631E-002	  1.25891E-002	  0.00000E+000	  0.00000E+000
  2.09715E+002	 -1.77657E-003	 -1.50899E-003	  0.00000E+000	  0.00000E+000
  2.35930E+002	 -1.04321E-002	 -1.05402E-002	  0.00000E+000	  0.00000E+000
  2.62144E+002	  2.95788E-002	  2.94242E-002	  0.00000E+000	  0.00000E+000
  2.88358E+002	  2.90634E-002	  2.89466E-002	  0.00000E+000	  0.00000E+000
  3.14573E+002	 -4.76179E-002	 -4.77350E-002	  0.00000E+000	  0.00000E+000
  3.40787E+002	  1.77916E-002	  1.74452E-002	  0.00000E+000	  0.00000E+000
  3.67002E+002	  2.10479E-002	  2.09001E-002	  0.00000E+000	  0.00000E+000
  3.93216E+002	 -9.50752E-003	 -9.37255E-003	  0.00000E+000	  0.00000E+000
  4.19430E+002	 -9.06401E-003	 -9.30152E-003	  0.00000E+000	  0.00000E+000
  4.71859E+002	  2.41780E-002	  2.42518E-002	  0.00000E+000	  0.00000E+000
  5.24288E+002	  3.37607E-002	  3.37237E-002	  0.00000E+000	  0.00000E+000
  5.76717E+002	  4.49354E-003	  4.47704E-003	  0.00000E+000	  0.00000E+000
  6.29146E+002	  1.56229E-005	  5.86151E-005	  0.00000E+000	  0.00000E+000
  6.81574E+002	  6.43046E-003	  6.46802E-003	  0.00000E+000	  0.00000E+000
  7.34003E+002	  1.02981E-003	  1.07271E-003	  0.00000E+000	  0.00000E+000
  7.86432E+002	  5.26131E-003	  5.28068E-003	  0.00000E+000	  0.00000E+000
  8.38861E+002	  9.00450E-003	  8.85933E-003	  0.00000E+000	  0.00000E+000
  9.43718E+002	 -3.19351E-003	 -3.25970E-003	  0.00000E+000	  0.00000E+000
  1.04858E+003	  6.82054E-003	  6.97311E-003	  0.00000E+000	  0.00000E+000
  1.15343E+003	  1.15834E-002	  1.17214E-002	  0.00000E+000	  0.00000E+000
  1.25829E+003	 -4.52830E-003	 -4.49612E-003	  0.00000E+000	  0.00000E+000
  1.36315E+003	 -6.47395E-003	 -6.46420E-003	  0.00000E+000	  0.00000E+000
  1.46801E+003	 -1.04972E-002	 -1.03029E-002	  0.00000E+000	  0.00000E+000
  1.57286E+003	  6.87680E-003	  6.88104E-003	  0.00000E+000	  0.00000E+000
  1.67772E+003	  8.12791E-003	  8.15410E-003	  0.00000E+000	  0.00000E+000
  1.88744E+003	 -1.06742E-002	 -1.06206E-002	  0.00000E+000	  0.00000E+000
  2.09715E+003	 -1.14301E-002	 -1.15913E-002	  0.00000E+000	  0.00000E+000
  2.30687E+003	 -4.16139E-003	 -4.00646E-003	  0.00000E+000	  0.00000E+000
  2.51658E+003	  3.39454E-003	  3.34615E-003	  0.00000E+000	  0.00000E+000
  2.72630E+003	 -7.15987E-003	 -7.33720E-003	  0.00000E+000	  0.00000E+000
  2.93601E+003	 -2.52287E-002	 -2.53554E-002	  0.00000E+000	  0.00000E+000
  3.14573E+003	 -1.40133E-002	 -1.41288E-002	  0.00000E+000	  0.00000E+000

"Count Rate"
       0.03906	     717.72235	     711.74023	     717.72235	     711.74023
       0.07813	     636.60626	     626.63611	     636.60626	     626.63611
       0.11719	     420.71439	     411.38336	     420.71439	     411.38336
       0.15625	     608.53650	     604.44617	     608.53650	     604.44617
       0.19531	     489.45721	     482.52927	     489.45721	     482.52927
       0.23438	     754.86749	     752.89905	     754.86749	     752.89905
       0.27344	     570.62439	     557.61206	     570.62439	     557.61206
       0.31250	     484.62555	     485.11127	     484.62555	     485.11127
       0.35156	     344.66010	     338.85696	     344.66010	     338.85696
       0.39063	    1492.65796	    1485.72998	    1492.65796	    1485.72998
       0.42969	     706.44836	     704.17316	     706.44836	     704.17316
       0.46875	     412.12473	     406.80731	     412.12473	     406.80731
       0.50781	     458.06406	     453.15570	     458.06406	     453.15570
       0.54688	     208.65715	     210.47223	     208.65715	     210.47223
       0.58594	     236.59911	     236.70137	     236.59911	     236.70137
       0.62500	     459.90469	     453.43689	     459.90469	     453.43689
       0.66406	     370.37796	     370.37796	     370.37796	     370.37796
       0.70313	     257.79205	     252.67915	     257.79205	     252.67915
       0.74219	     374.18704	     368.94635	     374.18704	     368.94635
       0.78125	     660.56018	     659.53760	     660.56018	     659.53760
       0.82031	     400.23724	     403.91852	     400.23724	     403.91852
       0.85938	     539.12897	     539.10339	     539.12897	     539.10339
       0.89844	    1847.23706	    1862.98474	    1847.23706	    1862.98474
       0.93750	     336.22382	     336.35165	     336.22382	     336.35165
       0.97656	     303.62915	     297.69818	     303.62915	     297.69818
       1.01563	     253.01151	     247.56627	     253.01151	     247.56627
       1.05469	     343.15179	     346.16840	     343.15179	     346.16840
       1.09375	     269.21936	     270.36978	     269.21936	     270.36978
       1.13281	     553.39392	     552.26910	     553.39392	     552.26910
       1.17188	    1018.74390	    1016.64758	    1018.74390	    1016.64758
       1.21094	     574.43347	     564.05432	     574.43347	     564.05432
       1.25000	     907.89636	     897.05701	     907.89636	     897.05701
       1.28906	     551.11871	     548.35773	     551.11871	     548.35773
       1.32813	     454.20383	     448.06836	     454.20383	     448.06836
       1.36719	    1069.10583	    1075.34363	    1069.10583	    1075.34363
       1.40625	     589.51654	     581.79608	     589.51654	     581.79608
       1.44531	     817.52600	     814.35602	     817.52600	     814.35602
       1.48438	     336.14713	     331.41769	     336.14713	     331.41769
       1.52344	     768.67230	     773.78522	     768.67230	     773.78522
       1.56250	     466.47476	     465.01761	     466.47476	     465.01761
       1.60156	     321.26862	     321.06409	     321.26862	     321.06409
       1.64063	     454.38278	     449.37213	     454.38278	     449.37213
       1.67969	     194.03429	     194.98016	     194.03429	     194.98016
       1.71875	     335.94263	     330.11392	     335.94263	     330.11392
       1.75781	     766.11584	     764.86322	     766.11584	     764.86322
       1.79688	     403.71402	     394.66418	     403.71402	     394.66418
       1.83594	     620.01495	     616.15472	     620.01495	     616.15472
       1.87500	     301.50729	     295.29514	     301.50729	     295.29514
       1.91406	    1143.42175	    1137.87427	    1143.42175	    1137.87427
       1.95313	    1107.35034	    1094.97717	    1107.35034	    1094.97717
       1.99219	     405.93811	     411.89465	     405.93811	     411.89465
       2.03125	     588.16162	     584.07129	     588.16162	     584.07129
       2.07031	     572.26050	     557.56097	     572.26050	     557.56097
       2.10938	     225.35075	     220.34012	     225.35075	     220.34012
       2.14844	     330.88086	     325.12885	     330.88086	     325.12885
       2.18750	     354.40018	     352.53397	     354.40018	     352.53397
       2.22656	     465.75897	     454.25494	     465.75897	     454.25494
       2.26563	     296.57333	     295.80640	     296.57333	     295.80640
       2.30469	     436.38541	     436.33426	     436.38541	     436.33426
       2.34375	     267.96671	     272.10815	     267.96671	     272.10815
       2.38281	     619.40137	     623.97742	     619.40137	     623.97742
       2.42188	     864.48792	     863.97662	     864.48792	     863.97662
       2.46094	     494.74905	     490.99109	     494.74905	     490.99109
       2.50000	     826.32019	     816.83575	     826.32019	     816.83575
       2.53906	     397.24622	     396.76047	     397.24622	     396.76047
       2.57813	     505.92075	     503.59436	     505.92075	     503.59436
       2.61719	     840.53400	     831.38196	     840.53400	     831.38196
       2.65625	     329.37256	     333.10495	     329.37256	     333.10495
       2.69531	     451.54514	     450.93158	     451.54514	     450.93158
       2.73438	     416.01053	     407.03738	     416.01053	     407.03738
       2.77344	     626.45721	     628.75800	     626.45721	     628.75800
       2.81250	     542.75916	     540.10040	     542.75916	     540.10040
       2.85156	     783.21851	     778.56573	     783.21851	     778.56573
       2.89063	     608.17859	     612.06439	     608.17859	     612.06439
       2.92969	     873.64001	     861.54797	     873.64001	     861.54797
       2.96875	     516.86230	     507.55685	     516.86230	     507.55685
       3.00781	    1193.42590	    1179.82556	    1193.42590	    1179.82556
       3.04688	     688.11865	     685.89459	     688.11865	     685.89459
       3.08594	     761.89771	     763.30377	     761.89771	     763.30377
       3.12500	    1277.83972	    1274.10730	    1277.83972	    1274.10730
       3.16406	     584.37805	     575.27710	     584.37805	     575.27710
       3.20313	    1198.43652	    1196.34021	    1198.43652	    1196.34021
       3.24219	     327.78757	     323.92731	     327.78757	     323.92731
       3.28125	     762.94586	     770.58966	     762.94586	     770.58966
       3.32031	     418.56696	     407.80432	     418.56696	     407.80432
       3.35938	    1737.82117	    1729.69165	    1737.82117	    1729.69165
       3.39844	     309.17664	     309.79016	     309.17664	     309.79016
       3.43750	     199.47951	     194.34105	     199.47951	     194.34105
       3.47656	     203.59538	     201.21790	     203.59538	     201.21790
       3.51563	     467.03720	     458.57535	     467.03720	     458.57535
       3.55469	     754.58630	     758.34424	     754.58630	     758.34424
       3.59375	     496.53857	     495.79721	     496.53857	     495.79721
       3.63281	    1229.98303	    1230.57104	    1229.98303	    1230.57104
       3.67188	    1084.08667	    1070.84424	    1084.08667	    1070.84424
       3.71094	    1605.29492	    1600.61670	    1605.29492	    1600.61670
       3.75000	     607.61615	     608.81769	     607.61615	     608.81769
       3.78906	     296.82898	     297.11020	     296.82898	     297.11020
       3.82813	     416.39398	     408.80133	     416.39398	     408.80133
       3.86719	     646.78094	     638.60028	     646.78094	     638.60028
       3.90625	    1101.52161	    1088.99500	    1101.52161	    1088.99500
       3.94531	     564.31000	     568.45142	     564.31000	     568.45142
       3.98438	     739.47766	     731.52716	     739.47766	     731.52716
       4.02344	     652.17505	     649.18402	     652.17505	     649.18402
       4.06250	    1183.58350	    1168.52612	    1183.58350	    1168.52612
       4.10156	     406.83289	     396.91388	     406.83289	     396.91388
       4.14063	     412.04803	     408.08554	     412.04803	     408.08554
       4.17969	     791.80817	     797.40674	     791.80817	     797.40674
       4.21875	     702.58813	     692.87366	     702.58813	     692.87366
       4.25781	     413.76083	     414.01648	     413.76083	     414.01648
       4.29688	     479.71716	     486.97748	     479.71716	     486.97748
       4.33594	     243.78273	     240.07588	     243.78273	     240.07588
       4.37500	     874.73926	     880.31232	     874.73926	     880.31232
       4.41406	     899.92023	     896.80139	     899.92023	     896.80139
       4.45313	    1189.38672	    1175.96533	    1189.38672	    1175.96533
       4.49219	     510.39453	     508.78397	     510.39453	     508.78397
       4.53125	     506.50873	     505.12823	     506.50873	     505.12823
       4.57031	     806.09869	     798.37823	     806.09869	     798.37823
       4.60938	     606.77252	     596.57233	     606.77252	     596.57233
       4.64844	     616.15472	     615.05542	     616.15472	     615.05542
       4.68750	     277.24661	     274.81799	     277.24661	     274.81799
       4.72656	     857.35541	     857.68774	     857.35541	     857.68774
       4.76563	     357.31451	     354.98816	     357.31451	     354.98816
       4.80469	     327.55746	     327.22513	     327.55746	     327.22513
       4.84375	     336.14713	     334.74109	     336.14713	     334.74109
       4.88281	     533.76044	     528.62201	     533.76044	     528.62201
       4.92188	     409.74722	     405.27344	     409.74722	     405.27344
       4.96094	     691.87665	     684.18176	     691.87665	     684.18176
       5.00000	     921.75232	     921.52222	     921.75232	     921.52222
       5.03906	     641.36127	     642.66504	     641.36127	     642.66504
       5.07813	     605.13641	     596.77686	     605.13641	     596.77686
       5.11719	     524.94067	     527.08813	     524.94067	     527.08813
       5.15625	     443.33893	     441.65167	     443.33893	     441.65167
       5.19531	     449.03979	     446.53448	     449.03979	     446.53448
       5.23438	    1132.94031	    1124.98975	    1132.94031	    1124.98975
       5.27344	    1118.70093	    1110.39246	    1118.70093	    1110.39246
       5.31250	     801.26697	     791.85925	     801.26697	     791.85925
       5.35156	     286.80771	     276.99097	     286.80771	     276.99097
       5.39063	     592.22638	     590.99927	     592.22638	     590.99927
       5.42969	     483.75635	     478.61789	     483.75635	     478.61789
       5.46875	     503.21091	     506.66211	     503.21091	     506.66211
       5.50781	     941.20685	     946.29419	     941.20685	     946.29419
       5.54688	     453.28351	     448.47739	     453.28351	     448.47739
       5.58594	     503.08307	     500.73114	     503.08307	     500.73114
       5.62500	     420.22867	     414.37439	     420.22867	     414.37439
       5.66406	     512.49078	     509.65314	     512.49078	     509.65314
       5.70313	     557.12634	     557.96997	     557.12634	     557.96997
       5.74219	     403.43280	     398.44772	     403.43280	     398.44772
       5.78125	     511.41708	     502.54623	     511.41708	     502.54623
       5.82031	     368.40948	     357.00775	     368.40948	     357.00775
       5.85938	     309.94357	     307.79614	     309.94357	     307.79614
       5.89844	     625.12781	     614.18622	     625.12781	     614.18622
       5.93750	     602.17096	     594.47601	     602.17096	     594.47601
       5.97656	     309.38113	     305.18857	     309.38113	     305.18857
       6.01563	     275.78943	     276.83759	     275.78943	     276.83759
       6.05469	     371.11932	     370.86368	     371.11932	     370.86368
       6.09375	     671.83411	     672.67773	     671.83411	     672.67773
       6.13281	     629.70386	     624.23309	     629.70386	     624.23309
       6.17188	     814.30487	     787.56445	     814.30487	     787.56445
       6.21094	     208.45264	     210.03763	     208.45264	     210.03763
       6.25000	     576.42755	     571.34021	     576.42755	     571.34021
       6.28906	     451.74963	     452.18423	     451.74963	     452.18423
       6.32813	     517.27136	     514.40814	     517.27136	     514.40814
       6.36719	     476.64941	     477.00732	     476.64941	     477.00732
       6.40625	     929.80511	     908.10089	     929.80511	     908.10089
       6.44531	     423.19412	     418.77148	     423.19412	     418.77148
       6.48438	     521.10602	     523.86700	     521.10602	     523.86700
       6.52344	     716.46967	     715.19147	     716.46967	     715.19147
       6.56250	     166.68030	     169.54352	     166.68030	     169.54352
       6.60156	     368.66513	     365.67410	     368.66513	     365.67410
       6.64063	     718.89832	     720.15094	     718.89832	     720.15094
       6.67969	     288.31601	     293.14771	     288.31601	     293.14771
       6.71875	     238.79765	     235.57654	     238.79765	     235.57654
       6.75781	     518.29395	     517.42474	     518.29395	     517.42474
       6.79688	     192.37259	     191.24776	     192.37259	     191.24776
       6.83594	     378.43076	     369.20200	     378.43076	     369.20200
       6.87500	     686.45697	     682.05988	     686.45697	     682.05988
       6.91406	     783.70422	     779.33270	     783.70422	     779.33270
       6.95313	     477.03290	     472.02225	     477.03290	     472.02225
       6.99219	     458.67761	     453.87149	     458.67761	     453.87149
       7.03125	     879.67322	     866.86542	     879.67322	     866.86542
       7.07031	     428.48599	     424.98364	     428.48599	     424.98364
       7.10938	     473.73508	     464.17398	     473.73508	     464.17398
       7.14844	     364.57483	     360.10104	     364.57483	     360.10104
       7.18750	     248.17981	     249.68813	     248.17981	     249.68813
       7.22656	     621.67664	     626.32935	     621.67664	     626.32935
       7.26563	     703.66187	     701.92346	     703.66187	     701.92346
       7.30469	     381.88196	     379.58115	     381.88196	     379.58115
       7.34375	     452.49100	     441.85620	     452.49100	     441.85620
       7.38281	     610.55609	     607.25830	     610.55609	     607.25830
       7.42188	     454.86850	     455.94220	     454.86850	     455.94220
       7.46094	     466.09131	     460.97842	     466.09131	     460.97842
       7.50000	     586.37213	     581.46375	     586.37213	     581.46375
       7.53906	     333.15610	     330.80417	     333.15610	     330.80417
       7.57813	     448.14505	     445.48636	     448.14505	     445.48636
       7.61719	     659.51202	     658.20825	     659.51202	     658.20825
       7.65625	     357.54459	     357.46790	     357.54459	     357.46790
       7.69531	     987.81085	     983.31152	     987.81085	     983.31152
       7.73438	     365.64853	     361.45596	     365.64853	     361.45596
       7.77344	     348.44363	     345.91275	     348.44363	     345.91275
       7.81250	    1442.32153	    1433.85962	    1442.32153	    1433.85962
       7.85156	     273.02847	     268.37573	     273.02847	     268.37573
       7.89063	     347.85565	     349.33841	     347.85565	     349.33841
       7.92969	     504.31018	     506.22751	     504.31018	     506.22751
       7.96875	    1060.64404	    1048.96106	    1060.64404	    1048.96106
       8.00781	     220.26343	     212.23618	     220.26343	     212.23618
       8.04688	     444.74496	     434.54477	     444.74496	     434.54477
       8.08594	     418.43915	     414.65561	     418.43915	     414.65561
       8.12500	     770.30841	     768.69788	     770.30841	     768.69788
       8.16406	     258.84021	     251.57990	     258.84021	     251.57990
       8.20313	     673.18903	     662.78430	     673.18903	     662.78430
       8.24219	     247.48958	     245.49554	     247.48958	     245.49554
       8.28125	     415.24359	     412.50818	     415.24359	     412.50818
       8.32031	     546.33813	     543.16815	     546.33813	     543.16815
       8.35938	     752.82233	     749.83130	     752.82233	     749.83130
       8.39844	     396.93942	     388.52872	     396.93942	     388.52872
       8.43750	     416.82858	     407.57425	     416.82858	     407.57425
       8.47656	     556.18048	     551.37433	     556.18048	     551.37433
       8.51563	     813.51239	     809.75439	     813.51239	     809.75439
       8.55469	     759.85254	     760.03149	     759.85254	     760.03149
       8.59375	     242.76015	     245.57224	     242.76015	     245.57224
       8.63281	     609.22675	     605.18756	     609.22675	     605.18756
       8.67188	     486.77295	     488.12787	     486.77295	     488.12787
       8.71094	     516.47888	     509.47421	     516.47888	     509.47421
       8.75000	     558.83917	     556.07825	     558.83917	     556.07825
       8.78906	     943.12421	     943.04749	     943.12421	     943.04749
       8.82813	     551.73224	     555.15790	     551.73224	     555.15790
       8.86719	     713.04401	     712.25153	     713.04401	     712.25153
       8.90625	     703.96863	     701.07983	     703.96863	     701.07983
       8.94531	     579.46973	     582.46075	     579.46973	     582.46075
       8.98438	     988.34772	     984.30853	     988.34772	     984.30853
       9.02344	    1892.66504	    1880.36853	    1892.66504	    1880.36853
       9.06250	     501.31912	     504.25906	     501.31912	     504.25906
       9.10156	     210.75343	     208.32481	     210.75343	     208.32481
       9.14063	     475.85693	     468.82669	     475.85693	     468.82669
       9.17969	    1209.42920	    1203.80505	    1209.42920	    1203.80505
       9.21875	     683.46594	     682.62231	     683.46594	     682.62231
       9.25781	     766.52490	     756.22241	     766.52490	     756.22241
       9.29688	     510.16443	     512.00507	     510.16443	     512.00507
       9.33594	     451.69852	     450.01126	     451.69852	     450.01126
       9.37500	     707.31757	     697.73090	     707.31757	     697.73090
       9.41406	     423.73099	     420.30536	     423.73099	     420.30536
       9.45313	     552.98492	     549.71265	     552.98492	     549.71265
       9.49219	     771.40771	     767.62415	     771.40771	     767.62415
       9.53125	     817.47485	     806.37988	     817.47485	     806.37988
       9.57031	     278.09024	     273.74429	     278.09024	     273.74429
       9.60938	     512.08179	     502.16275	     512.08179	     502.16275
       9.64844	     364.11465	     361.30258	     364.11465	     361.30258
       9.68750	     617.76526	     615.59229	     617.76526	     615.59229
       9.72656	     598.82202	     596.62347	     598.82202	     596.62347
       9.76563	     774.52655	     758.39539	     774.52655	     758.39539
       9.80469	     570.85449	     567.83789	     570.85449	     567.83789
       9.84375	     298.28616	     295.47406	     298.28616	     295.47406
       9.88281	     351.76703	     349.59406	     351.76703	     349.59406

Monitor Diode	  40855.46

"Cumulant 1.Order"
FluctuationFreq. [1/ms]	 7.9580E-002
DiffCoefficient [µm²/s]	 1.6979E+000
Hydrodyn. Radius [nm]	 1.4354E+002

"Cumulant 2.Order"
FluctuationFreq. [1/ms]	 7.6449E-002
DiffCoefficient [µm²/s]	 1.6311E+000
Hydrodyn. Radius [nm]	 1.4942E+002
Expansion Parameter µ2	-8.0469E-004

"Cumulant 3.Order"
FluctuationFreq. [1/ms]	 7.8506E-002
DiffCoefficient [µm²/s]	 1.6750E+000
Hydrodyn. Radius [nm]	 1.4551E+002
Expansion Parameter µ2	 5.6919E-004
Expansion Parameter µ3	 2.7492E-004

"StandardDeviation"
  2.50000E-005	  4.42973E-002
  5.00000E-005	  4.42974E-002
  7.50000E-005	  4.42976E-002
  1.00000E-004	  4.42977E-002
  1.25000E-004	  4.42978E-002
  1.50000E-004	  4.42980E-002
  1.75000E-004	  4.42981E-002
  2.00000E-004	  4.42983E-002
  2.25000E-004	  4.42976E-002
  2.50000E-004	  4.42977E-002
  2.75000E-004	  4.42975E-002
  3.00000E-004	  4.42977E-002
  3.25000E-004	  4.42962E-002
  3.50000E-004	  4.42962E-002
  3.75000E-004	  4.42975E-002
  4.00000E-004	  4.39945E-002
  4.50000E-004	  4.39941E-002
  5.00000E-004	  4.39944E-002
  5.50000E-004	  4.39942E-002
  6.00000E-004	  4.39944E-002
  6.50000E-004	  4.39939E-002
  7.00000E-004	  4.39943E-002
  7.50000E-004	  4.39949E-002
  8.00000E-004	  4.38427E-002
  9.00000E-004	  4.38423E-002
  1.00000E-003	  4.38422E-002
  1.10000E-003	  4.38424E-002
  1.20000E-003	  4.38423E-002
  1.30000E-003	  4.38423E-002
  1.40000E-003	  4.38422E-002
  1.50000E-003	  4.38423E-002
  1.60000E-003	  4.37661E-002
  1.80000E-003	  4.37659E-002
  2.00000E-003	  4.37659E-002
  2.20000E-003	  4.37659E-002
  2.40000E-003	  4.37660E-002
  2.60000E-003	  4.37660E-002
  2.80000E-003	  4.37660E-002
  3.00000E-003	  4.37660E-002
  3.20000E-003	  4.37277E-002
  3.60000E-003	  4.37272E-002
  4.00000E-003	  4.37272E-002
  4.40000E-003	  4.37272E-002
  4.80000E-003	  4.37273E-002
  5.20000E-003	  4.37273E-002
  5.60000E-003	  4.37273E-002
  6.00000E-003	  4.37273E-002
  6.40000E-003	  4.37080E-002
  7.20000E-003	  4.37072E-002
  8.00000E-003	  4.37072E-002
  8.80000E-003	  4.37072E-002
  9.60000E-003	  4.37072E-002
  1.04000E-002	  4.37073E-002
  1.12000E-002	  4.37073E-002
  1.20000E-002	  4.37073E-002
  1.28000E-002	  4.36972E-002
  1.44000E-002	  4.36954E-002
  1.60000E-002	  4.36954E-002
  1.76000E-002	  4.36955E-002
  1.92000E-002	  4.36956E-002
  2.08000E-002	  4.36956E-002
  2.24000E-002	  4.36956E-002
  2.40000E-002	  4.36958E-002
  2.56000E-002	  4.36893E-002
  2.88000E-002	  4.36856E-002
  3.20000E-002	  4.36857E-002
  3.52000E-002	  4.36857E-002
  3.84000E-002	  4.36857E-002
  4.16000E-002	  4.36857E-002
  4.48000E-002	  4.36858E-002
  4.80000E-002	  4.36858E-002
  5.12000E-002	  4.36809E-002
  5.76000E-002	  4.36734E-002
  6.40000E-002	  4.36734E-002
  7.04000E-002	  4.36735E-002
  7.68000E-002	  4.36733E-002
  8.32000E-002	  4.36731E-002
  8.96000E-002	  4.36728E-002
  9.60000E-002	  4.36725E-002
  1.02400E-001	  4.36660E-002
  1.15200E-001	  4.36503E-002
  1.28000E-001	  4.36498E-002
  1.40800E-001	  4.36491E-002
  1.53600E-001	  4.36477E-002
  1.66400E-001	  4.36468E-002
  1.79200E-001	  4.36459E-002
  1.92000E-001	  4.36444E-002
  2.04800E-001	  4.36296E-002
  2.30400E-001	  4.35998E-002
  2.56000E-001	  4.35968E-002
  2.81600E-001	  4.35937E-002
  3.07200E-001	  4.35893E-002
  3.32800E-001	  4.35852E-002
  3.58400E-001	  4.35800E-002
  3.84000E-001	  4.35749E-002
  4.09600E-001	  4.35571E-002
  4.60800E-001	  4.34935E-002
  5.12000E-001	  4.34844E-002
  5.63200E-001	  4.34743E-002
  6.14400E-001	  4.34615E-002
  6.65600E-001	  4.34497E-002
  7.16800E-001	  4.34341E-002
  7.68000E-001	  4.34155E-002
  8.19200E-001	  4.33613E-002
  9.21600E-001	  4.32346E-002
  1.02400E+000	  4.31937E-002
  1.12640E+000	  4.31490E-002
  1.22880E+000	  4.31025E-002
  1.33120E+000	  4.30509E-002
  1.43360E+000	  4.29942E-002
  1.53600E+000	  4.29326E-002
  1.63840E+000	  4.27921E-002
  1.84320E+000	  4.24904E-002
  2.04800E+000	  4.23363E-002
  2.25280E+000	  4.21680E-002
  2.45760E+000	  4.19816E-002
  2.66240E+000	  4.17857E-002
  2.86720E+000	  4.15796E-002
  3.07200E+000	  4.13640E-002
  3.27680E+000	  4.10996E-002
  3.68640E+000	  4.04276E-002
  4.09600E+000	  3.99412E-002
  4.50560E+000	  3.94357E-002
  4.91520E+000	  3.89011E-002
  5.32480E+000	  3.83709E-002
  5.73440E+000	  3.78360E-002
  6.14400E+000	  3.72998E-002
  6.55360E+000	  3.67172E-002
  7.37280E+000	  3.54570E-002
  8.19200E+000	  3.43766E-002
  9.01120E+000	  3.33217E-002
  9.83040E+000	  3.23068E-002
  1.06496E+001	  3.13551E-002
  1.14688E+001	  3.04778E-002
  1.22880E+001	  2.96869E-002
  1.31072E+001	  2.89111E-002
  1.47456E+001	  2.74910E-002
  1.63840E+001	  2.23304E-002
  1.80224E+001	  2.23304E-002
  1.96608E+001	  2.23304E-002
  2.12992E+001	  2.23304E-002
  2.29376E+001	  2.23304E-002
  2.45760E+001	  2.23304E-002
  2.62144E+001	  2.16516E-002
  2.94912E+001	  2.16516E-002
  3.27680E+001	  2.16516E-002
  3.60448E+001	  2.16516E-002
  3.93216E+001	  2.16516E-002
  4.25984E+001	  2.16516E-002
  4.58752E+001	  2.16516E-002
  4.91520E+001	  2.16516E-002
  5.24288E+001	  2.13703E-002
  5.89824E+001	  2.13703E-002
  6.55360E+001	  2.13703E-002
  7.20896E+001	  2.13703E-002
  7.86432E+001	  2.13703E-002
  8.51968E+001	  2.13703E-002
  9.17504E+001	  2.13703E-002
  9.83040E+001	  2.13703E-002
  1.04858E+002	  1.96554E-002
  1.17965E+002	  1.96554E-002
  1.31072E+002	  1.96554E-002
  1.44179E+002	  1.96554E-002
  1.57286E+002	  1.96554E-002
  1.70394E+002	  1.96554E-002
  1.83501E+002	  1.96554E-002
  1.96608E+002	  1.96554E-002
  2.09715E+002	  1.67869E-002
  2.35930E+002	  1.67869E-002
  2.62144E+002	  1.67869E-002
  2.88358E+002	  1.67869E-002
  3.14573E+002	  1.67869E-002
  3.40787E+002	  1.67869E-002
  3.67002E+002	  1.67869E-002
  3.93216E+002	  1.67869E-002
  4.19430E+002	  1.34700E-002
  4.71859E+002	  1.34700E-002
  5.24288E+002	  1.34700E-002
  5.76717E+002	  1.34700E-002
  6.29146E+002	  1.34700E-002
  6.81574E+002	  1.34700E-002
  7.34003E+002	  1.34700E-002
  7.86432E+002	  1.34700E-002
  8.38861E+002	  1.01131E-002
  9.43718E+002	  1.01131E-002
  1.04858E+003	  1.01131E-002
  1.15343E+003	  1.01131E-002
  1.25829E+003	  1.01131E-002
  1.36315E+003	  1.01131E-002
  1.46801E+003	  1.01131E-002
  1.57286E+003	  1.01131E-002
  1.67772E+003	  7.36033E-003
  1.88744E+003	  7.36033E-003
  2.09715E+003	  7.36033E-003
  2.30687E+003	  7.36033E-003
  2.51658E+003	  7.36033E-003
  2.72630E+003	  7.36033E-003
  2.93601E+003	  7.36033E-003
  3.14573E+003	  7.36033E-003
