ALV-7004/USB
Date :	"08.06.2022"
Time :	"14:19:49"
Samplename : 	"Samplename needed."
SampMemo(0) : 	""
SampMemo(1) : 	""
SampMemo(2) : 	""
SampMemo(3) : 	""
SampMemo(4) : 	""
SampMemo(5) : 	""
SampMemo(6) : 	""
SampMemo(7) : 	""
SampMemo(8) : 	""
SampMemo(9) : 	""
Temperature [K] :	     297.92176
Viscosity [cp]  :	       0.89478
Refractive Index:	       1.33200
Wavelength [nm] :	     632.80000
Angle [°]       :	      40.00000
Duration [s]    :	        10
FloatDur [ms]   :	         9961
Stop TP [ms]   :	  16777216
Runs            :	         1
Mode            :	"C-CH0/1+1/0"
MeanCR0 [kHz]   :	     405.58603
MeanCR1 [kHz]   :	     403.68172
MeanCR2 [kHz]   :	       0.00000
MeanCR3 [kHz]   :	       0.00000

"Correlation"
  2.50000E-005	  8.87369E-001	  8.85726E-001	  0.00000E+000	  0.00000E+000
  5.00000E-005	  8.94825E-001	  8.99386E-001	  0.00000E+000	  0.00000E+000
  7.50000E-005	  8.99080E-001	  9.00343E-001	  0.00000E+000	  0.00000E+000
  1.00000E-004	  8.94162E-001	  8.87884E-001	  0.00000E+000	  0.00000E+000
  1.25000E-004	  8.99349E-001	  8.96345E-001	  0.00000E+000	  0.00000E+000
  1.50000E-004	  8.93108E-001	  8.98258E-001	  0.00000E+000	  0.00000E+000
  1.75000E-004	  8.94125E-001	  8.92298E-001	  0.00000E+000	  0.00000E+000
  2.00000E-004	  8.88252E-001	  8.87810E-001	  0.00000E+000	  0.00000E+000
  2.25000E-004	  9.04880E-001	  9.04610E-001	  0.00000E+000	  0.00000E+000
  2.50000E-004	  8.95352E-001	  9.00146E-001	  0.00000E+000	  0.00000E+000
  2.75000E-004	  8.95940E-001	  8.94040E-001	  0.00000E+000	  0.00000E+000
  3.00000E-004	  8.92519E-001	  8.88006E-001	  0.00000E+000	  0.00000E+000
  3.25000E-004	  8.91820E-001	  8.95315E-001	  0.00000E+000	  0.00000E+000
  3.50000E-004	  8.92593E-001	  8.98111E-001	  0.00000E+000	  0.00000E+000
  3.75000E-004	  8.88252E-001	  8.80183E-001	  0.00000E+000	  0.00000E+000
  4.00000E-004	  8.95272E-001	  8.97143E-001	  0.00000E+000	  0.00000E+000
  4.50000E-004	  8.91894E-001	  8.87504E-001	  0.00000E+000	  0.00000E+000
  5.00000E-004	  8.93046E-001	  8.95450E-001	  0.00000E+000	  0.00000E+000
  5.50000E-004	  8.91563E-001	  8.94678E-001	  0.00000E+000	  0.00000E+000
  6.00000E-004	  8.92366E-001	  8.95585E-001	  0.00000E+000	  0.00000E+000
  6.50000E-004	  8.88914E-001	  8.92495E-001	  0.00000E+000	  0.00000E+000
  7.00000E-004	  8.90128E-001	  8.93390E-001	  0.00000E+000	  0.00000E+000
  7.50000E-004	  8.99778E-001	  8.97633E-001	  0.00000E+000	  0.00000E+000
  8.00000E-004	  8.93908E-001	  8.99705E-001	  0.00000E+000	  0.00000E+000
  9.00000E-004	  8.92421E-001	  8.95922E-001	  0.00000E+000	  0.00000E+000
  1.00000E-003	  8.92900E-001	  8.91036E-001	  0.00000E+000	  0.00000E+000
  1.10000E-003	  8.95395E-001	  8.95781E-001	  0.00000E+000	  0.00000E+000
  1.20000E-003	  8.93390E-001	  8.94205E-001	  0.00000E+000	  0.00000E+000
  1.30000E-003	  8.92734E-001	  8.90747E-001	  0.00000E+000	  0.00000E+000
  1.40000E-003	  8.92431E-001	  8.90754E-001	  0.00000E+000	  0.00000E+000
  1.50000E-003	  8.93234E-001	  8.94335E-001	  0.00000E+000	  0.00000E+000
  1.60000E-003	  8.94735E-001	  8.98437E-001	  0.00000E+000	  0.00000E+000
  1.80000E-003	  8.95202E-001	  8.92590E-001	  0.00000E+000	  0.00000E+000
  2.00000E-003	  8.94025E-001	  8.95641E-001	  0.00000E+000	  0.00000E+000
  2.20000E-003	  8.96133E-001	  8.95728E-001	  0.00000E+000	  0.00000E+000
  2.40000E-003	  8.94551E-001	  8.92582E-001	  0.00000E+000	  0.00000E+000
  2.60000E-003	  8.96008E-001	  8.97760E-001	  0.00000E+000	  0.00000E+000
  2.80000E-003	  8.94524E-001	  8.97257E-001	  0.00000E+000	  0.00000E+000
  3.00000E-003	  8.94542E-001	  8.92346E-001	  0.00000E+000	  0.00000E+000
  3.20000E-003	  8.93981E-001	  8.93767E-001	  0.00000E+000	  0.00000E+000
  3.60000E-003	  8.94718E-001	  8.95268E-001	  0.00000E+000	  0.00000E+000
  4.00000E-003	  8.92751E-001	  8.93202E-001	  0.00000E+000	  0.00000E+000
  4.40000E-003	  8.93177E-001	  8.94060E-001	  0.00000E+000	  0.00000E+000
  4.80000E-003	  8.93875E-001	  8.92895E-001	  0.00000E+000	  0.00000E+000
  5.20000E-003	  8.95462E-001	  8.94856E-001	  0.00000E+000	  0.00000E+000
  5.60000E-003	  8.94080E-001	  8.94255E-001	  0.00000E+000	  0.00000E+000
  6.00000E-003	  8.93923E-001	  8.95837E-001	  0.00000E+000	  0.00000E+000
  6.40000E-003	  8.92914E-001	  8.93707E-001	  0.00000E+000	  0.00000E+000
  7.20000E-003	  8.91985E-001	  8.91830E-001	  0.00000E+000	  0.00000E+000
  8.00000E-003	  8.91139E-001	  8.91884E-001	  0.00000E+000	  0.00000E+000
  8.80000E-003	  8.93786E-001	  8.93241E-001	  0.00000E+000	  0.00000E+000
  9.60000E-003	  8.92263E-001	  8.91748E-001	  0.00000E+000	  0.00000E+000
  1.04000E-002	  8.90657E-001	  8.90601E-001	  0.00000E+000	  0.00000E+000
  1.12000E-002	  8.91507E-001	  8.91405E-001	  0.00000E+000	  0.00000E+000
  1.20000E-002	  8.90637E-001	  8.91342E-001	  0.00000E+000	  0.00000E+000
  1.28000E-002	  8.90619E-001	  8.91925E-001	  0.00000E+000	  0.00000E+000
  1.44000E-002	  8.90338E-001	  8.89231E-001	  0.00000E+000	  0.00000E+000
  1.60000E-002	  8.90387E-001	  8.90786E-001	  0.00000E+000	  0.00000E+000
  1.76000E-002	  8.88983E-001	  8.88902E-001	  0.00000E+000	  0.00000E+000
  1.92000E-002	  8.89748E-001	  8.90082E-001	  0.00000E+000	  0.00000E+000
  2.08000E-002	  8.89762E-001	  8.90212E-001	  0.00000E+000	  0.00000E+000
  2.24000E-002	  8.88464E-001	  8.87933E-001	  0.00000E+000	  0.00000E+000
  2.40000E-002	  8.87809E-001	  8.88044E-001	  0.00000E+000	  0.00000E+000
  2.56000E-002	  8.87339E-001	  8.86874E-001	  0.00000E+000	  0.00000E+000
  2.88000E-002	  8.87128E-001	  8.87020E-001	  0.00000E+000	  0.00000E+000
  3.20000E-002	  8.86764E-001	  8.86756E-001	  0.00000E+000	  0.00000E+000
  3.52000E-002	  8.85432E-001	  8.85775E-001	  0.00000E+000	  0.00000E+000
  3.84000E-002	  8.84639E-001	  8.84761E-001	  0.00000E+000	  0.00000E+000
  4.16000E-002	  8.83445E-001	  8.83640E-001	  0.00000E+000	  0.00000E+000
  4.48000E-002	  8.83000E-001	  8.82689E-001	  0.00000E+000	  0.00000E+000
  4.80000E-002	  8.82133E-001	  8.82580E-001	  0.00000E+000	  0.00000E+000
  5.12000E-002	  8.80715E-001	  8.80515E-001	  0.00000E+000	  0.00000E+000
  5.76000E-002	  8.79914E-001	  8.80095E-001	  0.00000E+000	  0.00000E+000
  6.40000E-002	  8.77780E-001	  8.77344E-001	  0.00000E+000	  0.00000E+000
  7.04000E-002	  8.76248E-001	  8.76182E-001	  0.00000E+000	  0.00000E+000
  7.68000E-002	  8.74622E-001	  8.74392E-001	  0.00000E+000	  0.00000E+000
  8.32000E-002	  8.72479E-001	  8.72572E-001	  0.00000E+000	  0.00000E+000
  8.96000E-002	  8.71140E-001	  8.71396E-001	  0.00000E+000	  0.00000E+000
  9.60000E-002	  8.68176E-001	  8.68092E-001	  0.00000E+000	  0.00000E+000
  1.02400E-001	  8.67497E-001	  8.67671E-001	  0.00000E+000	  0.00000E+000
  1.15200E-001	  8.64439E-001	  8.64149E-001	  0.00000E+000	  0.00000E+000
  1.28000E-001	  8.61266E-001	  8.61347E-001	  0.00000E+000	  0.00000E+000
  1.40800E-001	  8.57797E-001	  8.57996E-001	  0.00000E+000	  0.00000E+000
  1.53600E-001	  8.54562E-001	  8.54690E-001	  0.00000E+000	  0.00000E+000
  1.66400E-001	  8.51123E-001	  8.51056E-001	  0.00000E+000	  0.00000E+000
  1.79200E-001	  8.48227E-001	  8.48505E-001	  0.00000E+000	  0.00000E+000
  1.92000E-001	  8.44916E-001	  8.45272E-001	  0.00000E+000	  0.00000E+000
  2.04800E-001	  8.41498E-001	  8.41589E-001	  0.00000E+000	  0.00000E+000
  2.30400E-001	  8.34917E-001	  8.35190E-001	  0.00000E+000	  0.00000E+000
  2.56000E-001	  8.28935E-001	  8.28838E-001	  0.00000E+000	  0.00000E+000
  2.81600E-001	  8.22808E-001	  8.23182E-001	  0.00000E+000	  0.00000E+000
  3.07200E-001	  8.16169E-001	  8.16304E-001	  0.00000E+000	  0.00000E+000
  3.32800E-001	  8.10073E-001	  8.10279E-001	  0.00000E+000	  0.00000E+000
  3.58400E-001	  8.04124E-001	  8.04486E-001	  0.00000E+000	  0.00000E+000
  3.84000E-001	  7.98264E-001	  7.98626E-001	  0.00000E+000	  0.00000E+000
  4.09600E-001	  7.92180E-001	  7.92393E-001	  0.00000E+000	  0.00000E+000
  4.60800E-001	  7.80619E-001	  7.80644E-001	  0.00000E+000	  0.00000E+000
  5.12000E-001	  7.68792E-001	  7.68816E-001	  0.00000E+000	  0.00000E+000
  5.63200E-001	  7.57548E-001	  7.57650E-001	  0.00000E+000	  0.00000E+000
  6.14400E-001	  7.46318E-001	  7.46325E-001	  0.00000E+000	  0.00000E+000
  6.65600E-001	  7.35111E-001	  7.35366E-001	  0.00000E+000	  0.00000E+000
  7.16800E-001	  7.24458E-001	  7.24400E-001	  0.00000E+000	  0.00000E+000
  7.68000E-001	  7.13556E-001	  7.13500E-001	  0.00000E+000	  0.00000E+000
  8.19200E-001	  7.03394E-001	  7.03378E-001	  0.00000E+000	  0.00000E+000
  9.21600E-001	  6.83134E-001	  6.83150E-001	  0.00000E+000	  0.00000E+000
  1.02400E+000	  6.63452E-001	  6.63277E-001	  0.00000E+000	  0.00000E+000
  1.12640E+000	  6.45142E-001	  6.45060E-001	  0.00000E+000	  0.00000E+000
  1.22880E+000	  6.27214E-001	  6.27176E-001	  0.00000E+000	  0.00000E+000
  1.33120E+000	  6.09952E-001	  6.09764E-001	  0.00000E+000	  0.00000E+000
  1.43360E+000	  5.93289E-001	  5.93274E-001	  0.00000E+000	  0.00000E+000
  1.53600E+000	  5.76965E-001	  5.76984E-001	  0.00000E+000	  0.00000E+000
  1.63840E+000	  5.61172E-001	  5.61106E-001	  0.00000E+000	  0.00000E+000
  1.84320E+000	  5.30155E-001	  5.30181E-001	  0.00000E+000	  0.00000E+000
  2.04800E+000	  5.00481E-001	  5.00661E-001	  0.00000E+000	  0.00000E+000
  2.25280E+000	  4.71838E-001	  4.71761E-001	  0.00000E+000	  0.00000E+000
  2.45760E+000	  4.44702E-001	  4.44436E-001	  0.00000E+000	  0.00000E+000
  2.66240E+000	  4.18885E-001	  4.18689E-001	  0.00000E+000	  0.00000E+000
  2.86720E+000	  3.94601E-001	  3.94345E-001	  0.00000E+000	  0.00000E+000
  3.07200E+000	  3.72174E-001	  3.71825E-001	  0.00000E+000	  0.00000E+000
  3.27680E+000	  3.50841E-001	  3.50539E-001	  0.00000E+000	  0.00000E+000
  3.68640E+000	  3.12669E-001	  3.12343E-001	  0.00000E+000	  0.00000E+000
  4.09600E+000	  2.78978E-001	  2.78837E-001	  0.00000E+000	  0.00000E+000
  4.50560E+000	  2.48969E-001	  2.48721E-001	  0.00000E+000	  0.00000E+000
  4.91520E+000	  2.21927E-001	  2.21635E-001	  0.00000E+000	  0.00000E+000
  5.32480E+000	  1.97561E-001	  1.97147E-001	  0.00000E+000	  0.00000E+000
  5.73440E+000	  1.73816E-001	  1.73388E-001	  0.00000E+000	  0.00000E+000
  6.14400E+000	  1.53125E-001	  1.53092E-001	  0.00000E+000	  0.00000E+000
  6.55360E+000	  1.29185E-001	  1.29211E-001	  0.00000E+000	  0.00000E+000
  7.37280E+000	  9.79628E-002	  9.79870E-002	  0.00000E+000	  0.00000E+000
  8.19200E+000	  7.32231E-002	  7.32048E-002	  0.00000E+000	  0.00000E+000
  9.01120E+000	  5.55923E-002	  5.57940E-002	  0.00000E+000	  0.00000E+000
  9.83040E+000	  4.38590E-002	  4.40816E-002	  0.00000E+000	  0.00000E+000
  1.06496E+001	  3.62053E-002	  3.58400E-002	  0.00000E+000	  0.00000E+000
  1.14688E+001	  3.42670E-002	  3.38377E-002	  0.00000E+000	  0.00000E+000
  1.22880E+001	  3.32114E-002	  3.29182E-002	  0.00000E+000	  0.00000E+000
  1.31072E+001	  2.59233E-002	  2.52061E-002	  0.00000E+000	  0.00000E+000
  1.47456E+001	  1.62546E-002	  1.58220E-002	  0.00000E+000	  0.00000E+000
  1.63840E+001	  4.74341E-003	  4.50322E-003	  0.00000E+000	  0.00000E+000
  1.80224E+001	 -1.25240E-004	 -6.39718E-004	  0.00000E+000	  0.00000E+000
  1.96608E+001	  2.99414E-003	  2.20110E-003	  0.00000E+000	  0.00000E+000
  2.12992E+001	  5.86435E-003	  5.25148E-003	  0.00000E+000	  0.00000E+000
  2.29376E+001	  5.48534E-003	  5.20974E-003	  0.00000E+000	  0.00000E+000
  2.45760E+001	  6.67446E-003	  5.93124E-003	  0.00000E+000	  0.00000E+000
  2.62144E+001	  4.02683E-003	  3.49503E-003	  0.00000E+000	  0.00000E+000
  2.94912E+001	 -9.14860E-003	 -9.69480E-003	  0.00000E+000	  0.00000E+000
  3.27680E+001	 -1.63732E-002	 -1.65958E-002	  0.00000E+000	  0.00000E+000
  3.60448E+001	 -2.04129E-002	 -1.99969E-002	  0.00000E+000	  0.00000E+000
  3.93216E+001	 -1.71941E-002	 -1.71038E-002	  0.00000E+000	  0.00000E+000
  4.25984E+001	 -7.06259E-003	 -7.14393E-003	  0.00000E+000	  0.00000E+000
  4.58752E+001	  1.63084E-003	  1.20906E-003	  0.00000E+000	  0.00000E+000
  4.91520E+001	  3.18147E-003	  3.13448E-003	  0.00000E+000	  0.00000E+000
  5.24288E+001	 -9.78824E-003	 -9.85956E-003	  0.00000E+000	  0.00000E+000
  5.89824E+001	  1.83466E-003	  1.50353E-003	  0.00000E+000	  0.00000E+000
  6.55360E+001	  2.14109E-003	  2.02253E-003	  0.00000E+000	  0.00000E+000
  7.20896E+001	  1.46835E-002	  1.44996E-002	  0.00000E+000	  0.00000E+000
  7.86432E+001	  1.02730E-002	  1.00947E-002	  0.00000E+000	  0.00000E+000
  8.51968E+001	 -2.23636E-002	 -2.23682E-002	  0.00000E+000	  0.00000E+000
  9.17504E+001	 -2.38255E-002	 -2.38381E-002	  0.00000E+000	  0.00000E+000
  9.83040E+001	 -1.21513E-002	 -1.18861E-002	  0.00000E+000	  0.00000E+000
  1.04858E+002	 -6.87343E-003	 -6.48002E-003	  0.00000E+000	  0.00000E+000
  1.17965E+002	 -1.73956E-002	 -1.69694E-002	  0.00000E+000	  0.00000E+000
  1.31072E+002	 -1.81418E-002	 -1.81905E-002	  0.00000E+000	  0.00000E+000
  1.44179E+002	 -1.40728E-002	 -1.42247E-002	  0.00000E+000	  0.00000E+000
  1.57286E+002	  3.05288E-003	  3.13291E-003	  0.00000E+000	  0.00000E+000
  1.70394E+002	 -6.06035E-003	 -5.70576E-003	  0.00000E+000	  0.00000E+000
  1.83501E+002	  5.20890E-003	  5.83312E-003	  0.00000E+000	  0.00000E+000
  1.96608E+002	  1.67356E-002	  1.67525E-002	  0.00000E+000	  0.00000E+000
  2.09715E+002	  1.67943E-002	  1.68078E-002	  0.00000E+000	  0.00000E+000
  2.35930E+002	 -2.70857E-003	 -3.07284E-003	  0.00000E+000	  0.00000E+000
  2.62144E+002	 -1.07523E-002	 -1.11395E-002	  0.00000E+000	  0.00000E+000
  2.88358E+002	  6.74855E-003	  6.50464E-003	  0.00000E+000	  0.00000E+000
  3.14573E+002	  1.76662E-003	  1.69229E-003	  0.00000E+000	  0.00000E+000
  3.40787E+002	 -3.24722E-003	 -3.30554E-003	  0.00000E+000	  0.00000E+000
  3.67002E+002	 -6.91270E-003	 -6.91730E-003	  0.00000E+000	  0.00000E+000
  3.93216E+002	  1.66159E-002	  1.69222E-002	  0.00000E+000	  0.00000E+000
  4.19430E+002	  1.42003E-002	  1.42302E-002	  0.00000E+000	  0.00000E+000
  4.71859E+002	 -1.05231E-002	 -1.07685E-002	  0.00000E+000	  0.00000E+000
  5.24288E+002	 -1.32677E-002	 -1.34155E-002	  0.00000E+000	  0.00000E+000
  5.76717E+002	 -1.06112E-002	 -1.08060E-002	  0.00000E+000	  0.00000E+000
  6.29146E+002	  1.01653E-002	  1.01782E-002	  0.00000E+000	  0.00000E+000
  6.81574E+002	  2.55946E-003	  2.44103E-003	  0.00000E+000	  0.00000E+000
  7.34003E+002	 -1.86302E-003	 -2.13434E-003	  0.00000E+000	  0.00000E+000
  7.86432E+002	 -1.44977E-002	 -1.44890E-002	  0.00000E+000	  0.00000E+000
  8.38861E+002	  4.85681E-003	  5.10726E-003	  0.00000E+000	  0.00000E+000
  9.43718E+002	 -6.30510E-003	 -6.41936E-003	  0.00000E+000	  0.00000E+000
  1.04858E+003	 -3.59246E-003	 -3.39591E-003	  0.00000E+000	  0.00000E+000
  1.15343E+003	  3.58520E-003	  3.25688E-003	  0.00000E+000	  0.00000E+000
  1.25829E+003	 -1.14630E-002	 -1.13230E-002	  0.00000E+000	  0.00000E+000
  1.36315E+003	  2.50014E-003	  2.48938E-003	  0.00000E+000	  0.00000E+000
  1.46801E+003	  2.78807E-003	  3.03457E-003	  0.00000E+000	  0.00000E+000
  1.57286E+003	  2.07655E-003	  2.01892E-003	  0.00000E+000	  0.00000E+000
  1.67772E+003	 -3.16137E-003	 -3.13682E-003	  0.00000E+000	  0.00000E+000
  1.88744E+003	  5.93177E-003	  6.18601E-003	  0.00000E+000	  0.00000E+000
  2.09715E+003	  2.79633E-003	  2.76851E-003	  0.00000E+000	  0.00000E+000
  2.30687E+003	  5.07374E-003	  5.14627E-003	  0.00000E+000	  0.00000E+000
  2.51658E+003	  3.08648E-003	  2.91514E-003	  0.00000E+000	  0.00000E+000
  2.72630E+003	 -6.01894E-003	 -5.94629E-003	  0.00000E+000	  0.00000E+000
  2.93601E+003	  2.36183E-003	  2.35871E-003	  0.00000E+000	  0.00000E+000
  3.14573E+003	 -1.44306E-003	 -1.56497E-003	  0.00000E+000	  0.00000E+000

"Count Rate"
       0.03906	     890.12909	     889.95013	     890.12909	     889.95013
       0.07813	     555.36243	     549.09912	     555.36243	     549.09912
       0.11719	     355.55057	     349.23615	     355.55057	     349.23615
       0.15625	     424.29340	     418.74591	     424.29340	     418.74591
       0.19531	     467.49734	     473.58170	     467.49734	     473.58170
       0.23438	     383.82486	     383.92712	     383.82486	     383.92712
       0.27344	     489.07376	     487.30981	     489.07376	     487.30981
       0.31250	     346.14285	     349.33841	     346.14285	     349.33841
       0.35156	     566.96869	     554.21204	     566.96869	     554.21204
       0.39063	     379.76010	     375.41415	     379.76010	     375.41415
       0.42969	     522.99780	     519.31653	     522.99780	     519.31653
       0.46875	     473.91403	     472.43130	     473.91403	     472.43130
       0.50781	     187.25970	     189.53493	     187.25970	     189.53493
       0.54688	     371.57947	     376.05325	     371.57947	     376.05325
       0.58594	     195.05685	     195.90048	     195.05685	     195.90048
       0.62500	     265.15463	     262.98163	     265.15463	     262.98163
       0.66406	     371.91183	     368.30722	     371.91183	     368.30722
       0.70313	     423.44977	     421.07230	     423.44977	     421.07230
       0.74219	     832.45563	     829.15784	     832.45563	     829.15784
       0.78125	     413.96536	     411.84351	     413.96536	     411.84351
       0.82031	     341.82245	     342.99841	     341.82245	     342.99841
       0.85938	     306.39011	     307.02921	     306.39011	     307.02921
       0.89844	     580.15991	     578.31927	     580.15991	     578.31927
       0.93750	     388.11969	     379.96463	     388.11969	     379.96463
       0.97656	     169.28787	     171.66537	     169.28787	     171.66537
       1.01563	     604.52289	     598.41296	     604.52289	     598.41296
       1.05469	     436.46210	     433.59888	     436.46210	     433.59888
       1.09375	     551.70667	     548.25549	     551.70667	     548.25549
       1.13281	     209.16844	     207.94135	     209.16844	     207.94135
       1.17188	     376.94803	     369.09973	     376.94803	     369.09973
       1.21094	     479.66605	     470.97412	     479.66605	     470.97412
       1.25000	     279.29178	     279.90530	     279.29178	     279.90530
       1.28906	     301.53284	     300.20349	     301.53284	     300.20349
       1.32813	     878.65063	     878.21600	     878.65063	     878.21600
       1.36719	     358.79724	     355.24377	     358.79724	     355.24377
       1.40625	     202.29160	     205.10370	     202.29160	     205.10370
       1.44531	     286.42426	     286.96112	     286.42426	     286.96112
       1.48438	     343.17737	     344.83905	     343.17737	     344.83905
       1.52344	     339.93066	     334.79221	     339.93066	     334.79221
       1.56250	     539.07782	     539.89594	     539.07782	     539.89594
       1.60156	     467.72742	     466.70486	     467.72742	     466.70486
       1.64063	     202.54724	     197.76669	     202.54724	     197.76669
       1.67969	     301.12381	     298.64407	     301.12381	     298.64407
       1.71875	     574.56134	     570.03644	     574.56134	     570.03644
       1.75781	     407.39529	     412.02246	     407.39529	     412.02246
       1.79688	     601.73633	     591.84290	     601.73633	     591.84290
       1.83594	     543.47491	     542.68243	     543.47491	     542.68243
       1.87500	     380.75711	     374.34045	     380.75711	     374.34045
       1.91406	     402.18015	     395.55896	     402.18015	     395.55896
       1.95313	     415.93384	     413.32626	     415.93384	     413.32626
       1.99219	     532.68671	     529.46564	     532.68671	     529.46564
       2.03125	     219.18971	     219.11302	     219.18971	     219.11302
       2.07031	     548.86902	     541.42975	     548.86902	     541.42975
       2.10938	     191.42671	     191.45227	     191.42671	     191.45227
       2.14844	     319.65805	     312.75565	     319.65805	     312.75565
       2.18750	     218.57617	     219.26640	     218.57617	     219.26640
       2.22656	     339.11261	     342.89615	     339.11261	     342.89615
       2.26563	     175.14214	     170.46385	     175.14214	     170.46385
       2.30469	     318.25201	     314.39178	     318.25201	     314.39178
       2.34375	     277.63007	     271.54575	     277.63007	     271.54575
       2.38281	     376.59012	     377.84277	     376.59012	     377.84277
       2.42188	     308.30743	     304.75397	     308.30743	     304.75397
       2.46094	     739.50323	     729.91656	     739.50323	     729.91656
       2.50000	     300.74036	     298.61850	     300.74036	     298.61850
       2.53906	     357.31451	     346.29623	     357.31451	     346.29623
       2.57813	     214.53699	     211.49481	     214.53699	     211.49481
       2.61719	     298.64407	     293.63342	     298.64407	     293.63342
       2.65625	     401.56659	     406.52609	     401.56659	     406.52609
       2.69531	     556.84515	     555.03009	     556.84515	     555.03009
       2.73438	     488.30682	     489.55948	     488.30682	     489.55948
       2.77344	     641.43799	     639.82739	     641.43799	     639.82739
       2.81250	     175.14214	     171.38417	     175.14214	     171.38417
       2.85156	     362.37628	     356.47089	     362.37628	     356.47089
       2.89063	     216.01971	     213.18207	     216.01971	     213.18207
       2.92969	     129.53514	     126.69748	     129.53514	     126.69748
       2.96875	     243.47595	     244.26845	     243.47595	     244.26845
       3.00781	     178.74673	     178.87456	     178.74673	     178.87456
       3.04688	     562.39264	     563.97766	     562.39264	     563.97766
       3.08594	     252.67915	     253.36940	     252.67915	     253.36940
       3.12500	     472.94257	     464.68527	     472.94257	     464.68527
       3.16406	     505.92075	     507.04556	     505.92075	     507.04556
       3.20313	     427.07993	     426.26187	     427.07993	     426.26187
       3.24219	     258.04770	     262.72598	     258.04770	     262.72598
       3.28125	     366.87561	     368.69070	     366.87561	     368.69070
       3.32031	     547.94873	     550.01941	     547.94873	     550.01941
       3.35938	     383.87598	     384.54065	     383.87598	     384.54065
       3.39844	     271.08557	     272.49161	     271.08557	     272.49161
       3.43750	     451.74963	     445.23071	     451.74963	     445.23071
       3.47656	     562.41821	     566.81531	     562.41821	     566.81531
       3.51563	     281.84821	     282.10385	     281.84821	     282.10385
       3.55469	     229.62001	     230.59146	     229.62001	     230.59146
       3.59375	     451.90302	     456.27454	     451.90302	     456.27454
       3.63281	     652.91638	     650.66675	     652.91638	     650.66675
       3.67188	     470.97412	     469.64478	     470.97412	     469.64478
       3.71094	     263.79971	     261.93350	     263.79971	     261.93350
       3.75000	     282.10385	     283.58661	     282.10385	     283.58661
       3.78906	     348.87823	     349.74744	     348.87823	     349.74744
       3.82813	     580.87573	     582.56299	     580.87573	     582.56299
       3.86719	     757.16827	     745.22968	     757.16827	     745.22968
       3.90625	     265.25687	     253.47166	     265.25687	     253.47166
       3.94531	     332.90045	     323.49274	     332.90045	     323.49274
       3.98438	     379.29996	     377.45932	     379.29996	     377.45932
       4.02344	     601.19952	     597.36481	     601.19952	     597.36481
       4.06250	     379.78568	     385.35873	     379.78568	     385.35873
       4.10156	     174.86093	     177.34068	     174.86093	     177.34068
       4.14063	     390.16486	     388.70767	     390.16486	     388.70767
       4.17969	     331.90344	     329.32141	     331.90344	     329.32141
       4.21875	     630.03619	     614.49304	     630.03619	     614.49304
       4.25781	     334.02530	     331.36658	     334.02530	     331.36658
       4.29688	     351.48581	     344.30219	     351.48581	     344.30219
       4.33594	     426.46640	     421.91592	     426.46640	     421.91592
       4.37500	     529.67010	     522.12860	     529.67010	     522.12860
       4.41406	     568.01685	     563.64532	     568.01685	     563.64532
       4.45313	     375.18408	     373.16449	     375.18408	     373.16449
       4.49219	     438.78845	     438.22604	     438.78845	     438.22604
       4.53125	     329.32141	     328.88684	     329.32141	     328.88684
       4.57031	     402.30795	     406.11707	     402.30795	     406.11707
       4.60938	     332.46585	     326.63715	     332.46585	     326.63715
       4.64844	     602.55438	     612.24335	     602.55438	     612.24335
       4.68750	     546.61938	     550.40289	     546.61938	     550.40289
       4.72656	     711.94476	     707.01080	     711.94476	     707.01080
       4.76563	     351.28131	     347.62558	     351.28131	     347.62558
       4.80469	     304.44720	     305.62317	     304.44720	     305.62317
       4.84375	     273.48865	     280.05872	     273.48865	     280.05872
       4.88281	     504.13123	     511.11032	     504.13123	     511.11032
       4.92188	     530.30927	     524.78729	     530.30927	     524.78729
       4.96094	     362.60635	     353.24976	     362.60635	     353.24976
       5.00000	     322.34232	     317.94525	     322.34232	     317.94525
       5.03906	     318.25201	     314.90308	     318.25201	     314.90308
       5.07813	     191.24776	     195.28694	     191.24776	     195.28694
       5.11719	     546.72162	     542.19672	     546.72162	     542.19672
       5.15625	     203.10966	     202.59837	     203.10966	     202.59837
       5.19531	     245.80232	     244.44740	     245.80232	     244.44740
       5.23438	     392.00549	     387.50613	     392.00549	     387.50613
       5.27344	     244.03838	     237.74951	     244.03838	     237.74951
       5.31250	     701.97461	     704.47992	     701.97461	     704.47992
       5.35156	     506.61099	     505.40945	     506.61099	     505.40945
       5.39063	     318.63547	     313.82935	     318.63547	     313.82935
       5.42969	     364.77933	     356.08740	     364.77933	     356.08740
       5.46875	     173.81279	     169.08336	     173.81279	     169.08336
       5.50781	     251.32425	     253.29271	     251.32425	     253.29271
       5.54688	     365.49515	     365.21393	     365.49515	     365.21393
       5.58594	     310.27591	     306.28784	     310.27591	     306.28784
       5.62500	     590.99927	     589.18420	     590.99927	     589.18420
       5.66406	     273.00290	     271.57129	     273.00290	     271.57129
       5.70313	     428.97171	     427.23331	     428.97171	     427.23331
       5.74219	     415.95938	     415.60150	     415.95938	     415.60150
       5.78125	     508.70728	     504.00342	     508.70728	     504.00342
       5.82031	     683.64490	     686.02240	     683.64490	     686.02240
       5.85938	     692.59247	     688.75781	     692.59247	     688.75781
       5.89844	     203.97885	     202.77733	     203.97885	     202.77733
       5.93750	     250.71069	     246.05797	     250.71069	     246.05797
       5.97656	     408.69910	     406.55167	     408.69910	     406.55167
       6.01563	     521.74512	     519.31653	     521.74512	     519.31653
       6.05469	     276.96539	     274.12775	     276.96539	     274.12775
       6.09375	     253.26714	     248.40990	     253.26714	     248.40990
       6.13281	     717.85016	     714.75684	     717.85016	     714.75684
       6.17188	     643.86658	     643.66205	     643.86658	     643.66205
       6.21094	     639.62286	     640.44092	     639.62286	     640.44092
       6.25000	     604.90637	     599.30774	     604.90637	     599.30774
       6.28906	     184.88220	     185.57245	     184.88220	     185.57245
       6.32813	     293.45447	     289.64539	     293.45447	     289.64539
       6.36719	     341.18332	     344.32776	     341.18332	     344.32776
       6.40625	     331.39215	     322.24005	     331.39215	     322.24005
       6.44531	     513.61566	     502.18832	     513.61566	     502.18832
       6.48438	     773.04382	     764.07068	     773.04382	     764.07068
       6.52344	     372.52536	     378.43076	     372.52536	     378.43076
       6.56250	     606.38910	     613.26593	     606.38910	     613.26593
       6.60156	     248.63997	     242.55563	     248.63997	     242.55563
       6.64063	     643.73877	     642.38385	     643.73877	     642.38385
       6.67969	     380.55261	     373.90585	     380.55261	     373.90585
       6.71875	     378.17511	     376.94803	     378.17511	     376.94803
       6.75781	     253.65060	     251.75883	     253.65060	     251.75883
       6.79688	     280.80008	     281.54144	     280.80008	     281.54144
       6.83594	     557.99554	     553.34283	     557.99554	     553.34283
       6.87500	     628.88580	     626.84064	     628.88580	     626.84064
       6.91406	     291.81836	     294.47705	     291.81836	     294.47705
       6.95313	     316.66702	     307.36154	     316.66702	     307.36154
       6.99219	     503.82446	     497.02429	     503.82446	     497.02429
       7.03125	     339.82843	     336.73511	     339.82843	     336.73511
       7.07031	     390.59946	     387.04599	     390.59946	     387.04599
       7.10938	     311.24734	     303.78253	     311.24734	     303.78253
       7.14844	     330.77859	     326.68829	     330.77859	     326.68829
       7.18750	     357.54459	     355.93402	     357.54459	     355.93402
       7.22656	     570.70111	     567.58221	     570.70111	     567.58221
       7.26563	     310.99170	     310.19922	     310.99170	     310.19922
       7.30469	     534.27173	     532.73785	     534.27173	     532.73785
       7.34375	     303.70584	     317.28055	     303.70584	     317.28055
       7.38281	     348.23914	     347.65115	     348.23914	     347.65115
       7.42188	     403.86740	     407.80432	     403.86740	     407.80432
       7.46094	     242.29999	     238.87434	     242.29999	     238.87434
       7.50000	     365.49515	     370.22458	     365.49515	     370.22458
       7.53906	     246.23691	     251.68214	     246.23691	     251.68214
       7.57813	     557.79102	     552.83154	     557.79102	     552.83154
       7.61719	     435.08160	     432.85751	     435.08160	     432.85751
       7.65625	     305.82767	     306.67130	     305.82767	     306.67130
       7.69531	     174.40077	     174.22182	     174.40077	     174.22182
       7.73438	     362.12064	     358.59274	     362.12064	     358.59274
       7.77344	     565.66492	     560.80762	     565.66492	     560.80762
       7.81250	     573.46204	     566.89197	     573.46204	     566.89197
       7.85156	     392.49121	     395.89130	     392.49121	     395.89130
       7.89063	     517.78265	     531.48523	     517.78265	     531.48523
       7.92969	     408.03439	     407.72763	     408.03439	     407.72763
       7.96875	     339.13818	     335.04785	     339.13818	     335.04785
       8.00781	     709.97632	     710.87103	     709.97632	     710.87103
       8.04688	     495.28592	     503.41544	     495.28592	     503.41544
       8.08594	     433.54773	     427.48895	     433.54773	     427.48895
       8.12500	     352.09937	     355.09039	     352.09937	     355.09039
       8.16406	     413.42850	     414.91125	     413.42850	     414.91125
       8.20313	    1155.36035	    1153.34082	    1155.36035	    1153.34082
       8.24219	     359.76871	     361.99280	     359.76871	     361.99280
       8.28125	     376.69238	     369.20200	     376.69238	     369.20200
       8.32031	     313.31805	     312.98572	     313.31805	     312.98572
       8.35938	     199.78629	     194.23880	     199.78629	     194.23880
       8.39844	     372.34641	     371.42609	     372.34641	     371.42609
       8.43750	     306.69687	     301.50729	     306.69687	     301.50729
       8.47656	     370.40350	     365.59741	     370.40350	     365.59741
       8.51563	     284.96707	     282.79410	     284.96707	     282.79410
       8.55469	     479.20587	     469.90042	     479.20587	     469.90042
       8.59375	     285.12045	     281.36249	     285.12045	     281.36249
       8.63281	     350.87225	     353.04526	     350.87225	     353.04526
       8.67188	     257.10181	     256.59052	     257.10181	     256.59052
       8.71094	     387.50613	     384.25946	     387.50613	     384.25946
       8.75000	     212.13393	     204.95030	     212.13393	     204.95030
       8.78906	     505.92075	     505.02597	     505.92075	     505.02597
       8.82813	     412.02246	     408.77579	     412.02246	     408.77579
       8.86719	     327.83868	     324.97546	     327.83868	     324.97546
       8.90625	     243.83386	     244.24289	     243.83386	     244.24289
       8.94531	     536.64923	     532.25214	     536.64923	     532.25214
       8.98438	     237.57056	     233.32686	     237.57056	     233.32686
       9.02344	     205.89619	     201.16676	     205.89619	     201.16676
       9.06250	     597.72272	     593.24896	     597.72272	     593.24896
       9.10156	     385.28204	     386.20236	     385.28204	     386.20236
       9.14063	     500.47549	     506.38089	     500.47549	     506.38089
       9.17969	     226.65454	     225.68309	     226.65454	     225.68309
       9.21875	     214.33246	     215.91747	     214.33246	     215.91747
       9.25781	     370.94037	     373.98254	     370.94037	     373.98254
       9.29688	     358.13257	     350.38654	     358.13257	     350.38654
       9.33594	     398.08984	     396.58151	     398.08984	     396.58151
       9.37500	     433.75226	     424.95807	     433.75226	     424.95807
       9.41406	     272.74725	     273.46307	     272.74725	     273.46307
       9.45313	     401.79669	     403.35611	     401.79669	     403.35611
       9.49219	     670.91382	     663.03992	     670.91382	     663.03992
       9.53125	     601.40399	     592.35419	     601.40399	     592.35419
       9.57031	     487.23312	     483.19394	     487.23312	     483.19394
       9.60938	     334.25537	     344.32776	     334.25537	     344.32776
       9.64844	     478.97580	     480.71417	     478.97580	     480.71417
       9.68750	     446.94351	     449.42328	     446.94351	     449.42328
       9.72656	     257.99658	     258.17551	     257.99658	     258.17551
       9.76563	     519.67444	     522.30756	     519.67444	     522.30756
       9.80469	     245.72563	     243.09248	     245.72563	     243.09248
       9.84375	     398.88232	     397.68079	     398.88232	     397.68079
       9.88281	     483.52628	     481.91571	     483.52628	     481.91571

Monitor Diode	  40948.03

"Cumulant 1.Order"
FluctuationFreq. [1/ms]	 1.4350E-001
DiffCoefficient [µm²/s]	 1.7533E+000
Hydrodyn. Radius [nm]	 1.3903E+002

"Cumulant 2.Order"
FluctuationFreq. [1/ms]	 1.4129E-001
DiffCoefficient [µm²/s]	 1.7263E+000
Hydrodyn. Radius [nm]	 1.4121E+002
Expansion Parameter µ2	-1.0305E-003

"Cumulant 3.Order"
FluctuationFreq. [1/ms]	 1.4910E-001
DiffCoefficient [µm²/s]	 1.8217E+000
Hydrodyn. Radius [nm]	 1.3381E+002
Expansion Parameter µ2	 8.4123E-003
Expansion Parameter µ3	 3.4491E-003

"StandardDeviation"
  2.50000E-005	  3.34110E-002
  5.00000E-005	  3.34111E-002
  7.50000E-005	  3.34113E-002
  1.00000E-004	  3.34114E-002
  1.25000E-004	  3.34116E-002
  1.50000E-004	  3.34118E-002
  1.75000E-004	  3.34119E-002
  2.00000E-004	  3.34122E-002
  2.25000E-004	  3.34118E-002
  2.50000E-004	  3.34093E-002
  2.75000E-004	  3.34093E-002
  3.00000E-004	  3.34087E-002
  3.25000E-004	  3.34085E-002
  3.50000E-004	  3.34085E-002
  3.75000E-004	  3.34082E-002
  4.00000E-004	  3.30134E-002
  4.50000E-004	  3.30138E-002
  5.00000E-004	  3.30137E-002
  5.50000E-004	  3.30139E-002
  6.00000E-004	  3.30137E-002
  6.50000E-004	  3.30142E-002
  7.00000E-004	  3.30140E-002
  7.50000E-004	  3.30134E-002
  8.00000E-004	  3.28142E-002
  9.00000E-004	  3.28144E-002
  1.00000E-003	  3.28143E-002
  1.10000E-003	  3.28139E-002
  1.20000E-003	  3.28142E-002
  1.30000E-003	  3.28144E-002
  1.40000E-003	  3.28144E-002
  1.50000E-003	  3.28143E-002
  1.60000E-003	  3.27137E-002
  1.80000E-003	  3.27133E-002
  2.00000E-003	  3.27136E-002
  2.20000E-003	  3.27131E-002
  2.40000E-003	  3.27134E-002
  2.60000E-003	  3.27132E-002
  2.80000E-003	  3.27135E-002
  3.00000E-003	  3.27135E-002
  3.20000E-003	  3.26632E-002
  3.60000E-003	  3.26623E-002
  4.00000E-003	  3.26628E-002
  4.40000E-003	  3.26628E-002
  4.80000E-003	  3.26626E-002
  5.20000E-003	  3.26621E-002
  5.60000E-003	  3.26625E-002
  6.00000E-003	  3.26625E-002
  6.40000E-003	  3.26373E-002
  7.20000E-003	  3.26364E-002
  8.00000E-003	  3.26367E-002
  8.80000E-003	  3.26358E-002
  9.60000E-003	  3.26363E-002
  1.04000E-002	  3.26368E-002
  1.12000E-002	  3.26365E-002
  1.20000E-002	  3.26368E-002
  1.28000E-002	  3.26235E-002
  1.44000E-002	  3.26207E-002
  1.60000E-002	  3.26206E-002
  1.76000E-002	  3.26211E-002
  1.92000E-002	  3.26208E-002
  2.08000E-002	  3.26207E-002
  2.24000E-002	  3.26212E-002
  2.40000E-002	  3.26213E-002
  2.56000E-002	  3.26125E-002
  2.88000E-002	  3.26071E-002
  3.20000E-002	  3.26070E-002
  3.52000E-002	  3.26074E-002
  3.84000E-002	  3.26073E-002
  4.16000E-002	  3.26074E-002
  4.48000E-002	  3.26071E-002
  4.80000E-002	  3.26071E-002
  5.12000E-002	  3.26014E-002
  5.76000E-002	  3.25904E-002
  6.40000E-002	  3.25905E-002
  7.04000E-002	  3.25903E-002
  7.68000E-002	  3.25896E-002
  8.32000E-002	  3.25896E-002
  8.96000E-002	  3.25885E-002
  9.60000E-002	  3.25889E-002
  1.02400E-001	  3.25796E-002
  1.15200E-001	  3.25584E-002
  1.28000E-001	  3.25571E-002
  1.40800E-001	  3.25558E-002
  1.53600E-001	  3.25538E-002
  1.66400E-001	  3.25520E-002
  1.79200E-001	  3.25494E-002
  1.92000E-001	  3.25466E-002
  2.04800E-001	  3.25263E-002
  2.30400E-001	  3.24888E-002
  2.56000E-001	  3.24830E-002
  2.81600E-001	  3.24765E-002
  3.07200E-001	  3.24694E-002
  3.32800E-001	  3.24621E-002
  3.58400E-001	  3.24528E-002
  3.84000E-001	  3.24425E-002
  4.09600E-001	  3.24184E-002
  4.60800E-001	  3.23240E-002
  5.12000E-001	  3.23023E-002
  5.63200E-001	  3.22780E-002
  6.14400E-001	  3.22494E-002
  6.65600E-001	  3.22246E-002
  7.16800E-001	  3.21901E-002
  7.68000E-001	  3.21549E-002
  8.19200E-001	  3.20674E-002
  9.21600E-001	  3.18886E-002
  1.02400E+000	  3.17988E-002
  1.12640E+000	  3.16979E-002
  1.22880E+000	  3.15949E-002
  1.33120E+000	  3.14704E-002
  1.43360E+000	  3.13467E-002
  1.53600E+000	  3.12179E-002
  1.63840E+000	  3.10183E-002
  1.84320E+000	  3.05901E-002
  2.04800E+000	  3.02980E-002
  2.25280E+000	  2.99908E-002
  2.45760E+000	  2.96579E-002
  2.66240E+000	  2.93223E-002
  2.86720E+000	  2.89772E-002
  3.07200E+000	  2.86171E-002
  3.27680E+000	  2.82599E-002
  3.68640E+000	  2.73958E-002
  4.09600E+000	  2.66854E-002
  4.50560E+000	  2.60045E-002
  4.91520E+000	  2.53527E-002
  5.32480E+000	  2.47378E-002
  5.73440E+000	  2.41368E-002
  6.14400E+000	  2.35612E-002
  6.55360E+000	  2.29244E-002
  7.37280E+000	  2.17521E-002
  8.19200E+000	  2.07289E-002
  9.01120E+000	  1.66674E-002
  9.83040E+000	  1.66674E-002
  1.06496E+001	  1.66674E-002
  1.14688E+001	  1.66674E-002
  1.22880E+001	  1.66674E-002
  1.31072E+001	  1.65071E-002
  1.47456E+001	  1.65071E-002
  1.63840E+001	  1.65071E-002
  1.80224E+001	  1.65071E-002
  1.96608E+001	  1.65071E-002
  2.12992E+001	  1.65071E-002
  2.29376E+001	  1.65071E-002
  2.45760E+001	  1.65071E-002
  2.62144E+001	  1.56587E-002
  2.94912E+001	  1.56587E-002
  3.27680E+001	  1.56587E-002
  3.60448E+001	  1.56587E-002
  3.93216E+001	  1.56587E-002
  4.25984E+001	  1.56587E-002
  4.58752E+001	  1.56587E-002
  4.91520E+001	  1.56587E-002
  5.24288E+001	  1.49379E-002
  5.89824E+001	  1.49379E-002
  6.55360E+001	  1.49379E-002
  7.20896E+001	  1.49379E-002
  7.86432E+001	  1.49379E-002
  8.51968E+001	  1.49379E-002
  9.17504E+001	  1.49379E-002
  9.83040E+001	  1.49379E-002
  1.04858E+002	  1.29560E-002
  1.17965E+002	  1.29560E-002
  1.31072E+002	  1.29560E-002
  1.44179E+002	  1.29560E-002
  1.57286E+002	  1.29560E-002
  1.70394E+002	  1.29560E-002
  1.83501E+002	  1.29560E-002
  1.96608E+002	  1.29560E-002
  2.09715E+002	  1.05176E-002
  2.35930E+002	  1.05176E-002
  2.62144E+002	  1.05176E-002
  2.88358E+002	  1.05176E-002
  3.14573E+002	  1.05176E-002
  3.40787E+002	  1.05176E-002
  3.67002E+002	  1.05176E-002
  3.93216E+002	  1.05176E-002
  4.19430E+002	  7.97489E-003
  4.71859E+002	  7.97489E-003
  5.24288E+002	  7.97489E-003
  5.76717E+002	  7.97489E-003
  6.29146E+002	  7.97489E-003
  6.81574E+002	  7.97489E-003
  7.34003E+002	  7.97489E-003
  7.86432E+002	  7.97489E-003
  8.38861E+002	  5.82986E-003
  9.43718E+002	  5.82986E-003
  1.04858E+003	  5.82986E-003
  1.15343E+003	  5.82986E-003
  1.25829E+003	  5.82986E-003
  1.36315E+003	  5.82986E-003
  1.46801E+003	  5.82986E-003
  1.57286E+003	  5.82986E-003
  1.67772E+003	  4.18978E-003
  1.88744E+003	  4.18978E-003
  2.09715E+003	  4.18978E-003
  2.30687E+003	  4.18978E-003
  2.51658E+003	  4.18978E-003
  2.72630E+003	  4.18978E-003
  2.93601E+003	  4.18978E-003
  3.14573E+003	  4.18978E-003
