ALV-7004/USB
Date :	"08.06.2022"
Time :	"14:28:57"
Samplename : 	"Samplename needed."
SampMemo(0) : 	""
SampMemo(1) : 	""
SampMemo(2) : 	""
SampMemo(3) : 	""
SampMemo(4) : 	""
SampMemo(5) : 	""
SampMemo(6) : 	""
SampMemo(7) : 	""
SampMemo(8) : 	""
SampMemo(9) : 	""
Temperature [K] :	     297.92029
Viscosity [cp]  :	       0.89480
Refractive Index:	       1.33200
Wavelength [nm] :	     632.80000
Angle [°]       :	      60.00000
Duration [s]    :	        10
FloatDur [ms]   :	         9961
Stop TP [ms]   :	  16777216
Runs            :	         1
Mode            :	"C-CH0/1+1/0"
MeanCR0 [kHz]   :	     215.23838
MeanCR1 [kHz]   :	     218.96252
MeanCR2 [kHz]   :	       0.00000
MeanCR3 [kHz]   :	       0.00000

"Correlation"
  2.50000E-005	  9.56183E-001	  9.56055E-001	  0.00000E+000	  0.00000E+000
  5.00000E-005	  9.76503E-001	  9.83575E-001	  0.00000E+000	  0.00000E+000
  7.50000E-005	  9.66109E-001	  9.49665E-001	  0.00000E+000	  0.00000E+000
  1.00000E-004	  9.84555E-001	  9.87324E-001	  0.00000E+000	  0.00000E+000
  1.25000E-004	  9.71945E-001	  9.73947E-001	  0.00000E+000	  0.00000E+000
  1.50000E-004	  9.79613E-001	  9.73692E-001	  0.00000E+000	  0.00000E+000
  1.75000E-004	  9.79570E-001	  9.65342E-001	  0.00000E+000	  0.00000E+000
  2.00000E-004	  9.74714E-001	  9.68068E-001	  0.00000E+000	  0.00000E+000
  2.25000E-004	  9.60187E-001	  9.60997E-001	  0.00000E+000	  0.00000E+000
  2.50000E-004	  9.90008E-001	  9.76503E-001	  0.00000E+000	  0.00000E+000
  2.75000E-004	  9.58142E-001	  9.54010E-001	  0.00000E+000	  0.00000E+000
  3.00000E-004	  9.76162E-001	  9.70369E-001	  0.00000E+000	  0.00000E+000
  3.25000E-004	  9.74075E-001	  9.87835E-001	  0.00000E+000	  0.00000E+000
  3.50000E-004	  9.58568E-001	  9.53669E-001	  0.00000E+000	  0.00000E+000
  3.75000E-004	  9.54862E-001	  9.53840E-001	  0.00000E+000	  0.00000E+000
  4.00000E-004	  9.60081E-001	  9.66577E-001	  0.00000E+000	  0.00000E+000
  4.50000E-004	  9.70795E-001	  9.71391E-001	  0.00000E+000	  0.00000E+000
  5.00000E-004	  9.64341E-001	  9.69644E-001	  0.00000E+000	  0.00000E+000
  5.50000E-004	  9.74522E-001	  9.76417E-001	  0.00000E+000	  0.00000E+000
  6.00000E-004	  9.61678E-001	  9.66108E-001	  0.00000E+000	  0.00000E+000
  6.50000E-004	  9.69814E-001	  9.61038E-001	  0.00000E+000	  0.00000E+000
  7.00000E-004	  9.79229E-001	  9.85917E-001	  0.00000E+000	  0.00000E+000
  7.50000E-004	  9.75842E-001	  9.85406E-001	  0.00000E+000	  0.00000E+000
  8.00000E-004	  9.71210E-001	  9.86195E-001	  0.00000E+000	  0.00000E+000
  9.00000E-004	  9.67887E-001	  9.64106E-001	  0.00000E+000	  0.00000E+000
  1.00000E-003	  9.67131E-001	  9.70837E-001	  0.00000E+000	  0.00000E+000
  1.10000E-003	  9.62967E-001	  9.61507E-001	  0.00000E+000	  0.00000E+000
  1.20000E-003	  9.71828E-001	  9.60698E-001	  0.00000E+000	  0.00000E+000
  1.30000E-003	  9.75214E-001	  9.74991E-001	  0.00000E+000	  0.00000E+000
  1.40000E-003	  9.63967E-001	  9.71646E-001	  0.00000E+000	  0.00000E+000
  1.50000E-003	  9.66630E-001	  9.69643E-001	  0.00000E+000	  0.00000E+000
  1.60000E-003	  9.64015E-001	  9.63744E-001	  0.00000E+000	  0.00000E+000
  1.80000E-003	  9.65533E-001	  9.68611E-001	  0.00000E+000	  0.00000E+000
  2.00000E-003	  9.71918E-001	  9.67162E-001	  0.00000E+000	  0.00000E+000
  2.20000E-003	  9.64873E-001	  9.64564E-001	  0.00000E+000	  0.00000E+000
  2.40000E-003	  9.67056E-001	  9.67684E-001	  0.00000E+000	  0.00000E+000
  2.60000E-003	  9.71172E-001	  9.67610E-001	  0.00000E+000	  0.00000E+000
  2.80000E-003	  9.68973E-001	  9.64862E-001	  0.00000E+000	  0.00000E+000
  3.00000E-003	  9.71071E-001	  9.70463E-001	  0.00000E+000	  0.00000E+000
  3.20000E-003	  9.71007E-001	  9.65362E-001	  0.00000E+000	  0.00000E+000
  3.60000E-003	  9.69595E-001	  9.66533E-001	  0.00000E+000	  0.00000E+000
  4.00000E-003	  9.65271E-001	  9.66773E-001	  0.00000E+000	  0.00000E+000
  4.40000E-003	  9.71270E-001	  9.71390E-001	  0.00000E+000	  0.00000E+000
  4.80000E-003	  9.66786E-001	  9.66794E-001	  0.00000E+000	  0.00000E+000
  5.20000E-003	  9.67561E-001	  9.69255E-001	  0.00000E+000	  0.00000E+000
  5.60000E-003	  9.66635E-001	  9.64425E-001	  0.00000E+000	  0.00000E+000
  6.00000E-003	  9.70194E-001	  9.68775E-001	  0.00000E+000	  0.00000E+000
  6.40000E-003	  9.67060E-001	  9.65965E-001	  0.00000E+000	  0.00000E+000
  7.20000E-003	  9.65883E-001	  9.66479E-001	  0.00000E+000	  0.00000E+000
  8.00000E-003	  9.64328E-001	  9.65592E-001	  0.00000E+000	  0.00000E+000
  8.80000E-003	  9.65766E-001	  9.65326E-001	  0.00000E+000	  0.00000E+000
  9.60000E-003	  9.66069E-001	  9.67033E-001	  0.00000E+000	  0.00000E+000
  1.04000E-002	  9.65231E-001	  9.64504E-001	  0.00000E+000	  0.00000E+000
  1.12000E-002	  9.66710E-001	  9.68517E-001	  0.00000E+000	  0.00000E+000
  1.20000E-002	  9.62969E-001	  9.63407E-001	  0.00000E+000	  0.00000E+000
  1.28000E-002	  9.62593E-001	  9.62835E-001	  0.00000E+000	  0.00000E+000
  1.44000E-002	  9.62210E-001	  9.60319E-001	  0.00000E+000	  0.00000E+000
  1.60000E-002	  9.59617E-001	  9.59748E-001	  0.00000E+000	  0.00000E+000
  1.76000E-002	  9.59344E-001	  9.57451E-001	  0.00000E+000	  0.00000E+000
  1.92000E-002	  9.59007E-001	  9.59016E-001	  0.00000E+000	  0.00000E+000
  2.08000E-002	  9.58518E-001	  9.60652E-001	  0.00000E+000	  0.00000E+000
  2.24000E-002	  9.56534E-001	  9.56682E-001	  0.00000E+000	  0.00000E+000
  2.40000E-002	  9.56192E-001	  9.55288E-001	  0.00000E+000	  0.00000E+000
  2.56000E-002	  9.56981E-001	  9.56522E-001	  0.00000E+000	  0.00000E+000
  2.88000E-002	  9.54806E-001	  9.54857E-001	  0.00000E+000	  0.00000E+000
  3.20000E-002	  9.50487E-001	  9.51781E-001	  0.00000E+000	  0.00000E+000
  3.52000E-002	  9.50083E-001	  9.51879E-001	  0.00000E+000	  0.00000E+000
  3.84000E-002	  9.47607E-001	  9.45950E-001	  0.00000E+000	  0.00000E+000
  4.16000E-002	  9.44611E-001	  9.43014E-001	  0.00000E+000	  0.00000E+000
  4.48000E-002	  9.43469E-001	  9.44343E-001	  0.00000E+000	  0.00000E+000
  4.80000E-002	  9.42440E-001	  9.40889E-001	  0.00000E+000	  0.00000E+000
  5.12000E-002	  9.40149E-001	  9.39119E-001	  0.00000E+000	  0.00000E+000
  5.76000E-002	  9.36351E-001	  9.37155E-001	  0.00000E+000	  0.00000E+000
  6.40000E-002	  9.32767E-001	  9.33209E-001	  0.00000E+000	  0.00000E+000
  7.04000E-002	  9.29485E-001	  9.30654E-001	  0.00000E+000	  0.00000E+000
  7.68000E-002	  9.25055E-001	  9.26087E-001	  0.00000E+000	  0.00000E+000
  8.32000E-002	  9.21968E-001	  9.21909E-001	  0.00000E+000	  0.00000E+000
  8.96000E-002	  9.17808E-001	  9.18267E-001	  0.00000E+000	  0.00000E+000
  9.60000E-002	  9.13481E-001	  9.13879E-001	  0.00000E+000	  0.00000E+000
  1.02400E-001	  9.10651E-001	  9.10654E-001	  0.00000E+000	  0.00000E+000
  1.15200E-001	  9.04330E-001	  9.04236E-001	  0.00000E+000	  0.00000E+000
  1.28000E-001	  8.98113E-001	  8.97538E-001	  0.00000E+000	  0.00000E+000
  1.40800E-001	  8.89880E-001	  8.89446E-001	  0.00000E+000	  0.00000E+000
  1.53600E-001	  8.83274E-001	  8.83208E-001	  0.00000E+000	  0.00000E+000
  1.66400E-001	  8.76134E-001	  8.76178E-001	  0.00000E+000	  0.00000E+000
  1.79200E-001	  8.69883E-001	  8.70000E-001	  0.00000E+000	  0.00000E+000
  1.92000E-001	  8.63835E-001	  8.63713E-001	  0.00000E+000	  0.00000E+000
  2.04800E-001	  8.56917E-001	  8.56865E-001	  0.00000E+000	  0.00000E+000
  2.30400E-001	  8.43350E-001	  8.43485E-001	  0.00000E+000	  0.00000E+000
  2.56000E-001	  8.31053E-001	  8.30777E-001	  0.00000E+000	  0.00000E+000
  2.81600E-001	  8.18649E-001	  8.18434E-001	  0.00000E+000	  0.00000E+000
  3.07200E-001	  8.06018E-001	  8.05786E-001	  0.00000E+000	  0.00000E+000
  3.32800E-001	  7.94075E-001	  7.93607E-001	  0.00000E+000	  0.00000E+000
  3.58400E-001	  7.81870E-001	  7.81457E-001	  0.00000E+000	  0.00000E+000
  3.84000E-001	  7.70001E-001	  7.69837E-001	  0.00000E+000	  0.00000E+000
  4.09600E-001	  7.58439E-001	  7.58431E-001	  0.00000E+000	  0.00000E+000
  4.60800E-001	  7.35592E-001	  7.35658E-001	  0.00000E+000	  0.00000E+000
  5.12000E-001	  7.13829E-001	  7.13861E-001	  0.00000E+000	  0.00000E+000
  5.63200E-001	  6.92721E-001	  6.93306E-001	  0.00000E+000	  0.00000E+000
  6.14400E-001	  6.71888E-001	  6.72495E-001	  0.00000E+000	  0.00000E+000
  6.65600E-001	  6.52123E-001	  6.52391E-001	  0.00000E+000	  0.00000E+000
  7.16800E-001	  6.32947E-001	  6.33353E-001	  0.00000E+000	  0.00000E+000
  7.68000E-001	  6.13982E-001	  6.14054E-001	  0.00000E+000	  0.00000E+000
  8.19200E-001	  5.95988E-001	  5.96063E-001	  0.00000E+000	  0.00000E+000
  9.21600E-001	  5.62126E-001	  5.62065E-001	  0.00000E+000	  0.00000E+000
  1.02400E+000	  5.30077E-001	  5.30230E-001	  0.00000E+000	  0.00000E+000
  1.12640E+000	  4.99539E-001	  4.99920E-001	  0.00000E+000	  0.00000E+000
  1.22880E+000	  4.71694E-001	  4.72168E-001	  0.00000E+000	  0.00000E+000
  1.33120E+000	  4.45259E-001	  4.45961E-001	  0.00000E+000	  0.00000E+000
  1.43360E+000	  4.19640E-001	  4.19967E-001	  0.00000E+000	  0.00000E+000
  1.53600E+000	  3.95613E-001	  3.95699E-001	  0.00000E+000	  0.00000E+000
  1.63840E+000	  3.73033E-001	  3.73024E-001	  0.00000E+000	  0.00000E+000
  1.84320E+000	  3.31137E-001	  3.30764E-001	  0.00000E+000	  0.00000E+000
  2.04800E+000	  2.94313E-001	  2.93715E-001	  0.00000E+000	  0.00000E+000
  2.25280E+000	  2.60564E-001	  2.60115E-001	  0.00000E+000	  0.00000E+000
  2.45760E+000	  2.31941E-001	  2.32331E-001	  0.00000E+000	  0.00000E+000
  2.66240E+000	  2.06802E-001	  2.07144E-001	  0.00000E+000	  0.00000E+000
  2.86720E+000	  1.82981E-001	  1.83481E-001	  0.00000E+000	  0.00000E+000
  3.07200E+000	  1.61438E-001	  1.62465E-001	  0.00000E+000	  0.00000E+000
  3.27680E+000	  1.43623E-001	  1.44098E-001	  0.00000E+000	  0.00000E+000
  3.68640E+000	  1.12645E-001	  1.12817E-001	  0.00000E+000	  0.00000E+000
  4.09600E+000	  9.31247E-002	  9.35861E-002	  0.00000E+000	  0.00000E+000
  4.50560E+000	  7.71633E-002	  7.69061E-002	  0.00000E+000	  0.00000E+000
  4.91520E+000	  6.28181E-002	  6.28263E-002	  0.00000E+000	  0.00000E+000
  5.32480E+000	  5.14690E-002	  5.14054E-002	  0.00000E+000	  0.00000E+000
  5.73440E+000	  4.39664E-002	  4.38274E-002	  0.00000E+000	  0.00000E+000
  6.14400E+000	  3.42842E-002	  3.38482E-002	  0.00000E+000	  0.00000E+000
  6.55360E+000	  2.54075E-002	  2.49383E-002	  0.00000E+000	  0.00000E+000
  7.37280E+000	  1.16657E-002	  1.21147E-002	  0.00000E+000	  0.00000E+000
  8.19200E+000	  1.10626E-002	  1.17279E-002	  0.00000E+000	  0.00000E+000
  9.01120E+000	  1.41029E-002	  1.46734E-002	  0.00000E+000	  0.00000E+000
  9.83040E+000	  1.72647E-002	  1.83478E-002	  0.00000E+000	  0.00000E+000
  1.06496E+001	  2.07837E-002	  2.14558E-002	  0.00000E+000	  0.00000E+000
  1.14688E+001	  1.93058E-002	  1.99143E-002	  0.00000E+000	  0.00000E+000
  1.22880E+001	  2.40313E-002	  2.49665E-002	  0.00000E+000	  0.00000E+000
  1.31072E+001	  1.93117E-002	  1.99783E-002	  0.00000E+000	  0.00000E+000
  1.47456E+001	  9.54362E-003	  9.91477E-003	  0.00000E+000	  0.00000E+000
  1.63840E+001	 -3.73620E-004	 -2.93791E-004	  0.00000E+000	  0.00000E+000
  1.80224E+001	  9.37088E-005	  3.50960E-004	  0.00000E+000	  0.00000E+000
  1.96608E+001	 -8.38155E-003	 -8.01079E-003	  0.00000E+000	  0.00000E+000
  2.12992E+001	 -5.67577E-003	 -4.71631E-003	  0.00000E+000	  0.00000E+000
  2.29376E+001	  4.53172E-003	  5.07267E-003	  0.00000E+000	  0.00000E+000
  2.45760E+001	  3.35022E-003	  3.42545E-003	  0.00000E+000	  0.00000E+000
  2.62144E+001	  4.19441E-003	  3.62548E-003	  0.00000E+000	  0.00000E+000
  2.94912E+001	  2.60082E-003	  1.76909E-003	  0.00000E+000	  0.00000E+000
  3.27680E+001	  2.99034E-004	  3.80314E-004	  0.00000E+000	  0.00000E+000
  3.60448E+001	 -2.16773E-004	 -9.16760E-006	  0.00000E+000	  0.00000E+000
  3.93216E+001	 -1.96275E-003	 -1.96507E-003	  0.00000E+000	  0.00000E+000
  4.25984E+001	 -1.93767E-002	 -1.89614E-002	  0.00000E+000	  0.00000E+000
  4.58752E+001	 -2.67090E-002	 -2.63787E-002	  0.00000E+000	  0.00000E+000
  4.91520E+001	  7.41551E-003	  7.67272E-003	  0.00000E+000	  0.00000E+000
  5.24288E+001	  2.80500E-003	  2.44883E-003	  0.00000E+000	  0.00000E+000
  5.89824E+001	  1.67155E-003	  1.25173E-003	  0.00000E+000	  0.00000E+000
  6.55360E+001	  8.30522E-003	  7.90166E-003	  0.00000E+000	  0.00000E+000
  7.20896E+001	 -1.58622E-002	 -1.61206E-002	  0.00000E+000	  0.00000E+000
  7.86432E+001	 -8.67018E-003	 -8.87452E-003	  0.00000E+000	  0.00000E+000
  8.51968E+001	 -2.38031E-003	 -2.59288E-003	  0.00000E+000	  0.00000E+000
  9.17504E+001	 -5.00995E-003	 -4.89955E-003	  0.00000E+000	  0.00000E+000
  9.83040E+001	 -2.28978E-002	 -2.22911E-002	  0.00000E+000	  0.00000E+000
  1.04858E+002	 -1.70170E-002	 -1.66509E-002	  0.00000E+000	  0.00000E+000
  1.17965E+002	 -3.12421E-003	 -2.93706E-003	  0.00000E+000	  0.00000E+000
  1.31072E+002	  1.27883E-002	  1.32947E-002	  0.00000E+000	  0.00000E+000
  1.44179E+002	  6.30961E-003	  6.42071E-003	  0.00000E+000	  0.00000E+000
  1.57286E+002	 -1.28896E-002	 -1.22753E-002	  0.00000E+000	  0.00000E+000
  1.70394E+002	 -5.95377E-003	 -5.96953E-003	  0.00000E+000	  0.00000E+000
  1.83501E+002	 -1.02815E-002	 -1.05893E-002	  0.00000E+000	  0.00000E+000
  1.96608E+002	  1.11240E-003	  1.13161E-003	  0.00000E+000	  0.00000E+000
  2.09715E+002	 -1.18166E-002	 -1.17179E-002	  0.00000E+000	  0.00000E+000
  2.35930E+002	  1.51153E-003	  1.35803E-003	  0.00000E+000	  0.00000E+000
  2.62144E+002	 -5.72080E-004	 -4.53119E-004	  0.00000E+000	  0.00000E+000
  2.88358E+002	 -7.29804E-003	 -7.26909E-003	  0.00000E+000	  0.00000E+000
  3.14573E+002	  5.91073E-003	  5.81155E-003	  0.00000E+000	  0.00000E+000
  3.40787E+002	 -2.32646E-003	 -2.22890E-003	  0.00000E+000	  0.00000E+000
  3.67002E+002	 -3.55138E-004	 -5.62364E-004	  0.00000E+000	  0.00000E+000
  3.93216E+002	  4.31553E-003	  4.20283E-003	  0.00000E+000	  0.00000E+000
  4.19430E+002	  5.10712E-003	  5.21049E-003	  0.00000E+000	  0.00000E+000
  4.71859E+002	  4.94126E-005	 -4.59403E-005	  0.00000E+000	  0.00000E+000
  5.24288E+002	  1.68311E-003	  1.56219E-003	  0.00000E+000	  0.00000E+000
  5.76717E+002	 -5.14783E-003	 -5.27098E-003	  0.00000E+000	  0.00000E+000
  6.29146E+002	 -3.18683E-004	 -5.50452E-004	  0.00000E+000	  0.00000E+000
  6.81574E+002	  5.02068E-003	  4.88278E-003	  0.00000E+000	  0.00000E+000
  7.34003E+002	  5.02108E-003	  5.01600E-003	  0.00000E+000	  0.00000E+000
  7.86432E+002	  2.02911E-003	  2.01421E-003	  0.00000E+000	  0.00000E+000
  8.38861E+002	 -4.82115E-003	 -4.60407E-003	  0.00000E+000	  0.00000E+000
  9.43718E+002	 -7.32086E-003	 -7.46531E-003	  0.00000E+000	  0.00000E+000
  1.04858E+003	  1.03994E-003	  9.21282E-004	  0.00000E+000	  0.00000E+000
  1.15343E+003	 -3.92178E-003	 -3.75999E-003	  0.00000E+000	  0.00000E+000
  1.25829E+003	 -2.22304E-003	 -2.09443E-003	  0.00000E+000	  0.00000E+000
  1.36315E+003	  5.71237E-004	  2.40698E-004	  0.00000E+000	  0.00000E+000
  1.46801E+003	  2.97919E-003	  3.07512E-003	  0.00000E+000	  0.00000E+000
  1.57286E+003	 -6.08791E-003	 -5.70872E-003	  0.00000E+000	  0.00000E+000
  1.67772E+003	  1.03363E-003	  1.06420E-003	  0.00000E+000	  0.00000E+000
  1.88744E+003	  3.05611E-003	  3.10533E-003	  0.00000E+000	  0.00000E+000
  2.09715E+003	 -3.36613E-003	 -3.21998E-003	  0.00000E+000	  0.00000E+000
  2.30687E+003	  4.94085E-003	  4.90625E-003	  0.00000E+000	  0.00000E+000
  2.51658E+003	 -2.14856E-003	 -2.17796E-003	  0.00000E+000	  0.00000E+000
  2.72630E+003	 -6.34671E-004	 -5.79897E-004	  0.00000E+000	  0.00000E+000
  2.93601E+003	  4.43276E-003	  4.34063E-003	  0.00000E+000	  0.00000E+000
  3.14573E+003	 -3.02018E-003	 -3.13355E-003	  0.00000E+000	  0.00000E+000

"Count Rate"
       0.03906	     135.36383	     139.88875	     135.36383	     139.88875
       0.07813	     229.49219	     237.92847	     229.49219	     237.92847
       0.11719	     167.70288	     176.34367	     167.70288	     176.34367
       0.15625	     236.47128	     239.28339	     236.47128	     239.28339
       0.19531	     168.26530	     167.21716	     168.26530	     167.21716
       0.23438	     167.67732	     172.56013	     167.67732	     172.56013
       0.27344	     280.39105	     289.74762	     280.39105	     289.74762
       0.31250	     164.63515	     165.32539	     164.63515	     165.32539
       0.35156	     225.37631	     230.54033	     225.37631	     230.54033
       0.39063	     164.22612	     170.02925	     164.22612	     170.02925
       0.42969	     168.03522	     170.02925	     168.03522	     170.02925
       0.46875	     129.68852	     132.65401	     129.68852	     132.65401
       0.50781	     203.39087	     205.28264	     203.39087	     205.28264
       0.54688	     196.53960	     198.89153	     196.53960	     198.89153
       0.58594	     122.12144	     125.77716	     122.12144	     125.77716
       0.62500	     366.44101	     377.79166	     366.44101	     377.79166
       0.66406	     234.01711	     231.51178	     234.01711	     231.51178
       0.70313	     287.83029	     293.58231	     287.83029	     293.58231
       0.74219	     111.94678	     116.54839	     111.94678	     116.54839
       0.78125	     185.87921	     187.23413	     185.87921	     187.23413
       0.82031	     294.68158	     296.75229	     294.68158	     296.75229
       0.85938	     126.26289	     122.60717	     126.26289	     122.60717
       0.89844	     282.97305	     291.23038	     282.97305	     291.23038
       0.93750	     243.11806	     240.63829	     243.11806	     240.63829
       0.97656	     178.36327	     184.52431	     178.36327	     184.52431
       1.01563	     163.35692	     168.00966	     163.35692	     168.00966
       1.05469	     231.02606	     235.78105	     231.02606	     235.78105
       1.09375	     182.17236	     180.79189	     182.17236	     180.79189
       1.13281	     217.68141	     221.89955	     217.68141	     221.89955
       1.17188	     138.63609	     137.79247	     138.63609	     137.79247
       1.21094	     266.10049	     271.75024	     266.10049	     271.75024
       1.25000	     164.53288	     165.73442	     164.53288	     165.73442
       1.28906	     171.28191	     173.40376	     171.28191	     173.40376
       1.32813	     160.16136	     162.61555	     160.16136	     162.61555
       1.36719	     330.57410	     333.51401	     330.57410	     333.51401
       1.40625	     228.08615	     236.82919	     228.08615	     236.82919
       1.44531	     213.00311	     216.14754	     213.00311	     216.14754
       1.48438	     176.11359	     178.56778	     176.11359	     178.56778
       1.52344	     190.81316	     192.14252	     190.81316	     192.14252
       1.56250	     155.71315	     155.68759	     155.71315	     155.68759
       1.60156	     344.48114	     351.02567	     344.48114	     351.02567
       1.64063	     259.32593	     266.48398	     259.32593	     266.48398
       1.67969	     192.34703	     200.45096	     192.34703	     200.45096
       1.71875	     462.43558	     470.76959	     462.43558	     470.76959
       1.75781	     237.11040	     246.41586	     237.11040	     246.41586
       1.79688	     170.66837	     174.96320	     170.66837	     174.96320
       1.83594	     161.49072	     164.99304	     161.49072	     164.99304
       1.87500	     188.99808	     196.13057	     188.99808	     196.13057
       1.91406	     224.04697	     229.92679	     224.04697	     229.92679
       1.95313	     176.59932	     180.15277	     176.59932	     180.15277
       1.99219	     209.37296	     214.25577	     209.37296	     214.25577
       2.03125	     307.18259	     312.62784	     307.18259	     312.62784
       2.07031	     270.06299	     273.18185	     270.06299	     273.18185
       2.10938	     227.85606	     227.16583	     227.85606	     227.16583
       2.14844	     219.08745	     217.98819	     219.08745	     217.98819
       2.18750	     292.17627	     297.26358	     292.17627	     297.26358
       2.22656	     309.86685	     314.90308	     309.86685	     314.90308
       2.26563	     159.18991	     163.84265	     159.18991	     163.84265
       2.30469	     211.90384	     217.50246	     211.90384	     217.50246
       2.34375	     356.11298	     367.23352	     356.11298	     367.23352
       2.38281	     220.92810	     221.03035	     220.92810	     221.03035
       2.42188	     199.99080	     203.00740	     199.99080	     203.00740
       2.46094	     199.99080	     202.93071	     199.99080	     202.93071
       2.50000	     299.99899	     305.26526	     299.99899	     305.26526
       2.53906	     285.52951	     292.35519	     285.52951	     292.35519
       2.57813	     198.20129	     194.18767	     198.20129	     194.18767
       2.61719	     142.11285	     139.96544	     142.11285	     139.96544
       2.65625	     165.58104	     170.28490	     165.58104	     170.28490
       2.69531	     152.05743	     155.53419	     152.05743	     155.53419
       2.73438	     165.52991	     168.98111	     165.52991	     168.98111
       2.77344	     270.44647	     274.25555	     270.44647	     274.25555
       2.81250	     195.15912	     199.32613	     195.15912	     199.32613
       2.85156	     230.54033	     234.88629	     230.54033	     234.88629
       2.89063	     215.84077	     217.80923	     215.84077	     217.80923
       2.92969	     139.78648	     146.84229	     139.78648	     146.84229
       2.96875	     188.12889	     188.33340	     188.12889	     188.33340
       3.00781	     178.59334	     184.19196	     178.59334	     184.19196
       3.04688	     313.06244	     315.84894	     313.06244	     315.84894
       3.08594	     278.47369	     281.92490	     278.47369	     281.92490
       3.12500	     145.61519	     145.58961	     145.61519	     145.58961
       3.16406	     130.40433	     128.64038	     130.40433	     128.64038
       3.20313	     125.70047	     125.57265	     125.70047	     125.57265
       3.24219	     179.76930	     189.96953	     179.76930	     189.96953
       3.28125	     197.20427	     203.62096	     197.20427	     203.62096
       3.32031	     176.70157	     183.24608	     176.70157	     183.24608
       3.35938	     185.21454	     184.80551	     185.21454	     184.80551
       3.39844	     200.52765	     197.33209	     200.52765	     197.33209
       3.43750	     211.21359	     216.50545	     211.21359	     216.50545
       3.47656	     277.50226	     280.85120	     277.50226	     280.85120
       3.51563	     234.55396	     239.82024	     234.55396	     239.82024
       3.55469	     241.91652	     249.61142	     241.91652	     249.61142
       3.59375	     265.56366	     270.01187	     265.56366	     270.01187
       3.63281	     242.91353	     252.06561	     242.91353	     252.06561
       3.67188	     127.31103	     130.55772	     127.31103	     130.55772
       3.71094	     295.70416	     304.49832	     295.70416	     304.49832
       3.75000	     291.97174	     303.39905	     291.97174	     303.39905
       3.78906	     226.62897	     233.30130	     226.62897	     233.30130
       3.82813	     242.45337	     245.75119	     242.45337	     245.75119
       3.86719	     170.66837	     173.07143	     170.66837	     173.07143
       3.90625	     159.31773	     161.18394	     159.31773	     161.18394
       3.94531	     248.35876	     258.71237	     248.35876	     258.71237
       3.98438	     149.78220	     153.79581	     149.78220	     153.79581
       4.02344	     175.47447	     180.35728	     175.47447	     180.35728
       4.06250	     157.68161	     158.80644	     157.68161	     158.80644
       4.10156	     230.69373	     235.24420	     230.69373	     235.24420
       4.14063	     297.72375	     300.97043	     297.72375	     300.97043
       4.17969	     344.81348	     354.42572	     344.81348	     354.42572
       4.21875	     214.58810	     215.25279	     214.58810	     215.25279
       4.25781	     290.15668	     296.80344	     290.15668	     296.80344
       4.29688	     291.33264	     299.53882	     291.33264	     299.53882
       4.33594	     173.55714	     176.85497	     173.55714	     176.85497
       4.37500	     192.21921	     195.90048	     192.21921	     195.90048
       4.41406	     179.51367	     183.83406	     179.51367	     183.83406
       4.45313	     226.83348	     231.97194	     226.83348	     231.97194
       4.49219	     224.78833	     226.78236	     224.78833	     226.78236
       4.53125	     193.62524	     196.23282	     193.62524	     196.23282
       4.57031	     244.31958	     244.80530	     244.31958	     244.80530
       4.60938	     152.77324	     157.27258	     152.77324	     157.27258
       4.64844	     104.12406	     104.12406	     104.12406	     104.12406
       4.68750	     261.06430	     261.93350	     261.06430	     261.93350
       4.72656	     323.10925	     330.90643	     323.10925	     330.90643
       4.76563	     210.52336	     206.02402	     210.52336	     206.02402
       4.80469	     267.04639	     263.64630	     267.04639	     263.64630
       4.84375	     246.28804	     248.76779	     246.28804	     248.76779
       4.88281	     187.08075	     187.18300	     187.08075	     187.18300
       4.92188	     217.78366	     224.30261	     217.78366	     224.30261
       4.96094	     422.19711	     441.77951	     422.19711	     441.77951
       5.00000	     152.59428	     157.98839	     152.59428	     157.98839
       5.03906	     144.36253	     144.89938	     144.36253	     144.89938
       5.07813	     202.06152	     204.13225	     202.06152	     204.13225
       5.11719	     242.35112	     245.29103	     242.35112	     245.29103
       5.15625	     255.00552	     264.20874	     255.00552	     264.20874
       5.19531	     212.23618	     214.76706	     212.23618	     214.76706
       5.23438	     248.99788	     256.82062	     248.99788	     256.82062
       5.27344	     146.58664	     145.15503	     146.58664	     145.15503
       5.31250	     186.67171	     187.10631	     186.67171	     187.10631
       5.35156	     190.14848	     192.37259	     190.14848	     192.37259
       5.39063	     250.25053	     256.56497	     250.25053	     256.56497
       5.42969	     256.33487	     261.83124	     256.33487	     261.83124
       5.46875	     193.98315	     192.98613	     193.98315	     192.98613
       5.50781	     174.47746	     172.12553	     174.47746	     172.12553
       5.54688	     189.66275	     192.29590	     189.66275	     192.29590
       5.58594	     221.28600	     221.61833	     221.28600	     221.61833
       5.62500	     204.43901	     216.45432	     204.43901	     216.45432
       5.66406	     167.85626	     171.79320	     167.85626	     171.79320
       5.70313	     213.30989	     218.80624	     213.30989	     218.80624
       5.74219	     144.38809	     149.70551	     144.38809	     149.70551
       5.78125	     231.63960	     234.40057	     231.63960	     234.40057
       5.82031	     172.30449	     173.76166	     172.30449	     173.76166
       5.85938	     270.16525	     273.33524	     270.16525	     273.33524
       5.89844	     140.42560	     143.54446	     140.42560	     143.54446
       5.93750	     199.60733	     204.97588	     199.60733	     204.97588
       5.97656	     283.12643	     287.39569	     283.12643	     287.39569
       6.01563	     282.10385	     286.96112	     282.10385	     286.96112
       6.05469	     330.42068	     333.07941	     330.42068	     333.07941
       6.09375	     173.48045	     172.66238	     173.48045	     172.66238
       6.13281	     178.05649	     184.08971	     178.05649	     184.08971
       6.17188	     141.70383	     145.41068	     141.70383	     145.41068
       6.21094	     221.89955	     224.12366	     221.89955	     224.12366
       6.25000	     122.88837	     126.44184	     122.88837	     126.44184
       6.28906	     145.71744	     144.64374	     145.71744	     144.64374
       6.32813	     234.14493	     241.12402	     234.14493	     241.12402
       6.36719	     224.02139	     228.75082	     224.02139	     228.75082
       6.40625	     322.31677	     323.31378	     322.31677	     323.31378
       6.44531	     193.88089	     197.92007	     193.88089	     197.92007
       6.48438	     173.42932	     181.02197	     173.42932	     181.02197
       6.52344	     207.96692	     213.74448	     207.96692	     213.74448
       6.56250	     327.02063	     327.88980	     327.02063	     327.88980
       6.60156	     135.64505	     137.97141	     135.64505	     137.97141
       6.64063	     226.55228	     229.74783	     226.55228	     229.74783
       6.67969	     314.41733	     314.49402	     314.41733	     314.49402
       6.71875	     221.92511	     227.65155	     221.92511	     227.65155
       6.75781	     190.76202	     189.79057	     190.76202	     189.79057
       6.79688	     209.27071	     213.46327	     209.27071	     213.46327
       6.83594	     159.59895	     166.93594	     159.59895	     166.93594
       6.87500	     202.85402	     207.02103	     202.85402	     207.02103
       6.91406	     152.54315	     166.39909	     152.54315	     166.39909
       6.95313	     216.94003	     216.24980	     216.94003	     216.24980
       6.99219	     142.03616	     143.31438	     142.03616	     143.31438
       7.03125	     194.13654	     203.49313	     194.13654	     203.49313
       7.07031	     310.19922	     310.81274	     310.19922	     310.81274
       7.10938	     427.94913	     439.37643	     427.94913	     439.37643
       7.14844	     169.41570	     171.61424	     169.41570	     171.61424
       7.18750	     116.54839	     115.90928	     116.54839	     115.90928
       7.22656	     192.01469	     200.75774	     192.01469	     200.75774
       7.26563	     153.89807	     154.17928	     153.89807	     154.17928
       7.30469	     211.75046	     213.25876	     211.75046	     213.25876
       7.34375	     186.62059	     184.44760	     186.62059	     184.44760
       7.38281	     151.75066	     160.39145	     151.75066	     160.39145
       7.42188	     190.94098	     190.81316	     190.94098	     190.81316
       7.46094	     185.03558	     185.98148	     185.03558	     185.98148
       7.50000	     373.65021	     385.40985	     373.65021	     385.40985
       7.53906	     157.80943	     161.10725	     157.80943	     161.10725
       7.57813	     168.69989	     168.08635	     168.69989	     168.08635
       7.61719	     212.61964	     214.53699	     212.61964	     214.53699
       7.65625	     212.36400	     214.56255	     212.36400	     214.56255
       7.69531	     160.59596	     159.36887	     160.59596	     159.36887
       7.73438	     163.02458	     171.33304	     163.02458	     171.33304
       7.77344	     194.26436	     203.16080	     194.26436	     203.16080
       7.81250	     225.32518	     230.15686	     225.32518	     230.15686
       7.85156	     269.47501	     268.22235	     269.47501	     268.22235
       7.89063	     235.26976	     234.88629	     235.26976	     234.88629
       7.92969	     209.01506	     217.17012	     209.01506	     217.17012
       7.96875	     306.13446	     309.76462	     306.13446	     309.76462
       8.00781	     189.40712	     190.63420	     189.40712	     190.63420
       8.04688	     145.81970	     148.50397	     145.81970	     148.50397
       8.08594	     228.31622	     233.12234	     228.31622	     233.12234
       8.12500	     259.22366	     261.95905	     259.22366	     261.95905
       8.16406	     191.14549	     196.56516	     191.14549	     196.56516
       8.20313	     176.80383	     175.37222	     176.80383	     175.37222
       8.24219	     356.57315	     357.90250	     356.57315	     357.90250
       8.28125	     158.32072	     162.87120	     158.32072	     162.87120
       8.32031	     171.89546	     174.63086	     171.89546	     174.63086
       8.35938	     217.34908	     226.98688	     217.34908	     226.98688
       8.39844	     212.28731	     212.33844	     212.28731	     212.33844
       8.43750	     269.85849	     269.67953	     269.85849	     269.67953
       8.47656	     220.13560	     222.89656	     220.13560	     222.89656
       8.51563	     227.11470	     234.22162	     227.11470	     234.22162
       8.55469	     167.83070	     170.48941	     167.83070	     170.48941
       8.59375	     454.76624	     457.65503	     454.76624	     457.65503
       8.63281	     114.63106	     113.53178	     114.63106	     113.53178
       8.67188	     205.61497	     214.10239	     205.61497	     214.10239
       8.71094	     174.47746	     178.61891	     174.47746	     178.61891
       8.75000	     227.06357	     232.89226	     227.06357	     232.89226
       8.78906	     175.39778	     178.74673	     175.39778	     178.74673
       8.82813	     279.87976	     286.85886	     279.87976	     286.85886
       8.86719	     184.21753	     188.30785	     184.21753	     188.30785
       8.90625	     308.00067	     308.51196	     308.00067	     308.51196
       8.94531	     209.90981	     215.78964	     209.90981	     215.78964
       8.98438	     221.26044	     232.84114	     221.26044	     232.84114
       9.02344	     140.75793	     140.52786	     140.75793	     140.52786
       9.06250	     229.10872	     228.23953	     229.10872	     228.23953
       9.10156	     166.91039	     171.71651	     166.91039	     171.71651
       9.14063	      99.16456	     101.15858	      99.16456	     101.15858
       9.17969	     189.73946	     192.32146	     189.73946	     192.32146
       9.21875	     172.02327	     174.65642	     172.02327	     174.65642
       9.25781	     226.14325	     226.09212	     226.14325	     226.09212
       9.29688	     304.34494	     303.47574	     304.34494	     303.47574
       9.33594	     195.79823	     201.01338	     195.79823	     201.01338
       9.37500	     226.27107	     225.22293	     226.27107	     225.22293
       9.41406	     319.19791	     323.49274	     319.19791	     323.49274
       9.45313	     180.81746	     185.54688	     180.81746	     185.54688
       9.49219	     238.92548	     247.46400	     238.92548	     247.46400
       9.53125	     139.60754	     146.25430	     139.60754	     146.25430
       9.57031	     182.45358	     183.27164	     182.45358	     183.27164
       9.60938	     217.42577	     224.68607	     217.42577	     224.68607
       9.64844	     180.94528	     184.70325	     180.94528	     184.70325
       9.68750	     287.70248	     286.14304	     287.70248	     286.14304
       9.72656	     239.33450	     245.98128	     239.33450	     245.98128
       9.76563	     150.47243	     153.20782	     150.47243	     153.20782
       9.80469	     223.33116	     229.33881	     223.33116	     229.33881
       9.84375	     226.24550	     229.56888	     226.24550	     229.56888
       9.88281	     224.99284	     230.08017	     224.99284	     230.08017

Monitor Diode	  40866.89

"Cumulant 1.Order"
FluctuationFreq. [1/ms]	 2.9257E-001
DiffCoefficient [µm²/s]	 1.6726E+000
Hydrodyn. Radius [nm]	 1.4573E+002

"Cumulant 2.Order"
FluctuationFreq. [1/ms]	 2.9726E-001
DiffCoefficient [µm²/s]	 1.6994E+000
Hydrodyn. Radius [nm]	 1.4343E+002
Expansion Parameter µ2	 4.3433E-003

"Cumulant 3.Order"
FluctuationFreq. [1/ms]	 3.0455E-001
DiffCoefficient [µm²/s]	 1.7411E+000
Hydrodyn. Radius [nm]	 1.4000E+002
Expansion Parameter µ2	 2.1844E-002
Expansion Parameter µ3	 1.2705E-002

"StandardDeviation"
  2.50000E-005	  2.89564E-002
  5.00000E-005	  2.89572E-002
  7.50000E-005	  2.89564E-002
  1.00000E-004	  2.89573E-002
  1.25000E-004	  2.89576E-002
  1.50000E-004	  2.89573E-002
  1.75000E-004	  2.89575E-002
  2.00000E-004	  2.89580E-002
  2.25000E-004	  2.89385E-002
  2.50000E-004	  2.89573E-002
  2.75000E-004	  2.89168E-002
  3.00000E-004	  2.89377E-002
  3.25000E-004	  2.89351E-002
  3.50000E-004	  2.89169E-002
  3.75000E-004	  2.89127E-002
  4.00000E-004	  2.71434E-002
  4.50000E-004	  2.71467E-002
  5.00000E-004	  2.71445E-002
  5.50000E-004	  2.71481E-002
  6.00000E-004	  2.71439E-002
  6.50000E-004	  2.71466E-002
  7.00000E-004	  2.71503E-002
  7.50000E-004	  2.71488E-002
  8.00000E-004	  2.62089E-002
  9.00000E-004	  2.62091E-002
  1.00000E-003	  2.62095E-002
  1.10000E-003	  2.62099E-002
  1.20000E-003	  2.62089E-002
  1.30000E-003	  2.62089E-002
  1.40000E-003	  2.62099E-002
  1.50000E-003	  2.62096E-002
  1.60000E-003	  2.57300E-002
  1.80000E-003	  2.57287E-002
  2.00000E-003	  2.57262E-002
  2.20000E-003	  2.57291E-002
  2.40000E-003	  2.57280E-002
  2.60000E-003	  2.57265E-002
  2.80000E-003	  2.57274E-002
  3.00000E-003	  2.57268E-002
  3.20000E-003	  2.54821E-002
  3.60000E-003	  2.54817E-002
  4.00000E-003	  2.54838E-002
  4.40000E-003	  2.54810E-002
  4.80000E-003	  2.54832E-002
  5.20000E-003	  2.54826E-002
  5.60000E-003	  2.54832E-002
  6.00000E-003	  2.54813E-002
  6.40000E-003	  2.53595E-002
  7.20000E-003	  2.53582E-002
  8.00000E-003	  2.53591E-002
  8.80000E-003	  2.53580E-002
  9.60000E-003	  2.53579E-002
  1.04000E-002	  2.53585E-002
  1.12000E-002	  2.53574E-002
  1.20000E-002	  2.53597E-002
  1.28000E-002	  2.52971E-002
  1.44000E-002	  2.52927E-002
  1.60000E-002	  2.52944E-002
  1.76000E-002	  2.52943E-002
  1.92000E-002	  2.52945E-002
  2.08000E-002	  2.52944E-002
  2.24000E-002	  2.52956E-002
  2.40000E-002	  2.52956E-002
  2.56000E-002	  2.52605E-002
  2.88000E-002	  2.52531E-002
  3.20000E-002	  2.52561E-002
  3.52000E-002	  2.52556E-002
  3.84000E-002	  2.52565E-002
  4.16000E-002	  2.52582E-002
  4.48000E-002	  2.52580E-002
  4.80000E-002	  2.52576E-002
  5.12000E-002	  2.52363E-002
  5.76000E-002	  2.52210E-002
  6.40000E-002	  2.52224E-002
  7.04000E-002	  2.52226E-002
  7.68000E-002	  2.52243E-002
  8.32000E-002	  2.52241E-002
  8.96000E-002	  2.52249E-002
  9.60000E-002	  2.52257E-002
  1.02400E-001	  2.52059E-002
  1.15200E-001	  2.51737E-002
  1.28000E-001	  2.51725E-002
  1.40800E-001	  2.51739E-002
  1.53600E-001	  2.51698E-002
  1.66400E-001	  2.51685E-002
  1.79200E-001	  2.51648E-002
  1.92000E-001	  2.51597E-002
  2.04800E-001	  2.51310E-002
  2.30400E-001	  2.50668E-002
  2.56000E-001	  2.50532E-002
  2.81600E-001	  2.50423E-002
  3.07200E-001	  2.50236E-002
  3.32800E-001	  2.50097E-002
  3.58400E-001	  2.49904E-002
  3.84000E-001	  2.49724E-002
  4.09600E-001	  2.49505E-002
  4.60800E-001	  2.48455E-002
  5.12000E-001	  2.47825E-002
  5.63200E-001	  2.47188E-002
  6.14400E-001	  2.46526E-002
  6.65600E-001	  2.45661E-002
  7.16800E-001	  2.44805E-002
  7.68000E-001	  2.43905E-002
  8.19200E-001	  2.42233E-002
  9.21600E-001	  2.39023E-002
  1.02400E+000	  2.37096E-002
  1.12640E+000	  2.35155E-002
  1.22880E+000	  2.32998E-002
  1.33120E+000	  2.30878E-002
  1.43360E+000	  2.28395E-002
  1.53600E+000	  2.26022E-002
  1.63840E+000	  2.22860E-002
  1.84320E+000	  2.16335E-002
  2.04800E+000	  2.11751E-002
  2.25280E+000	  2.06416E-002
  2.45760E+000	  2.01441E-002
  2.66240E+000	  1.96610E-002
  2.86720E+000	  1.92029E-002
  3.07200E+000	  1.87326E-002
  3.27680E+000	  1.83330E-002
  3.68640E+000	  1.74860E-002
  4.09600E+000	  1.68758E-002
  4.50560E+000	  1.64158E-002
  4.91520E+000	  1.60166E-002
  5.32480E+000	  1.56425E-002
  5.73440E+000	  1.53555E-002
  6.14400E+000	  1.50091E-002
  6.55360E+000	  1.45418E-002
  7.37280E+000	  1.38339E-002
  8.19200E+000	  1.25631E-002
  9.01120E+000	  1.25631E-002
  9.83040E+000	  1.25631E-002
  1.06496E+001	  1.25631E-002
  1.14688E+001	  1.25631E-002
  1.22880E+001	  1.25631E-002
  1.31072E+001	  1.21962E-002
  1.47456E+001	  1.21962E-002
  1.63840E+001	  1.21962E-002
  1.80224E+001	  1.21962E-002
  1.96608E+001	  1.21962E-002
  2.12992E+001	  1.21962E-002
  2.29376E+001	  1.21962E-002
  2.45760E+001	  1.21962E-002
  2.62144E+001	  1.11246E-002
  2.94912E+001	  1.11246E-002
  3.27680E+001	  1.11246E-002
  3.60448E+001	  1.11246E-002
  3.93216E+001	  1.11246E-002
  4.25984E+001	  1.11246E-002
  4.58752E+001	  1.11246E-002
  4.91520E+001	  1.11246E-002
  5.24288E+001	  9.93657E-003
  5.89824E+001	  9.93657E-003
  6.55360E+001	  9.93657E-003
  7.20896E+001	  9.93657E-003
  7.86432E+001	  9.93657E-003
  8.51968E+001	  9.93657E-003
  9.17504E+001	  9.93657E-003
  9.83040E+001	  9.93657E-003
  1.04858E+002	  8.16258E-003
  1.17965E+002	  8.16258E-003
  1.31072E+002	  8.16258E-003
  1.44179E+002	  8.16258E-003
  1.57286E+002	  8.16258E-003
  1.70394E+002	  8.16258E-003
  1.83501E+002	  8.16258E-003
  1.96608E+002	  8.16258E-003
  2.09715E+002	  6.37709E-003
  2.35930E+002	  6.37709E-003
  2.62144E+002	  6.37709E-003
  2.88358E+002	  6.37709E-003
  3.14573E+002	  6.37709E-003
  3.40787E+002	  6.37709E-003
  3.67002E+002	  6.37709E-003
  3.93216E+002	  6.37709E-003
  4.19430E+002	  4.73282E-003
  4.71859E+002	  4.73282E-003
  5.24288E+002	  4.73282E-003
  5.76717E+002	  4.73282E-003
  6.29146E+002	  4.73282E-003
  6.81574E+002	  4.73282E-003
  7.34003E+002	  4.73282E-003
  7.86432E+002	  4.73282E-003
  8.38861E+002	  3.42593E-003
  9.43718E+002	  3.42593E-003
  1.04858E+003	  3.42593E-003
  1.15343E+003	  3.42593E-003
  1.25829E+003	  3.42593E-003
  1.36315E+003	  3.42593E-003
  1.46801E+003	  3.42593E-003
  1.57286E+003	  3.42593E-003
  1.67772E+003	  2.45055E-003
  1.88744E+003	  2.45055E-003
  2.09715E+003	  2.45055E-003
  2.30687E+003	  2.45055E-003
  2.51658E+003	  2.45055E-003
  2.72630E+003	  2.45055E-003
  2.93601E+003	  2.45055E-003
  3.14573E+003	  2.45055E-003
