ALV-7004/USB
Date :	"08.06.2022"
Time :	"14:21:22"
Samplename : 	"Samplename needed."
SampMemo(0) : 	""
SampMemo(1) : 	""
SampMemo(2) : 	""
SampMemo(3) : 	""
SampMemo(4) : 	""
SampMemo(5) : 	""
SampMemo(6) : 	""
SampMemo(7) : 	""
SampMemo(8) : 	""
SampMemo(9) : 	""
Temperature [K] :	     297.92337
Viscosity [cp]  :	       0.89479
Refractive Index:	       1.33200
Wavelength [nm] :	     632.80000
Angle [°]       :	      50.00000
Duration [s]    :	        10
FloatDur [ms]   :	         9961
Stop TP [ms]   :	  16777216
Runs            :	         1
Mode            :	"C-CH0/1+1/0"
MeanCR0 [kHz]   :	     285.11188
MeanCR1 [kHz]   :	     285.19269
MeanCR2 [kHz]   :	       0.00000
MeanCR3 [kHz]   :	       0.00000

"Correlation"
  2.50000E-005	  9.37713E-001	  9.29120E-001	  0.00000E+000	  0.00000E+000
  5.00000E-005	  9.33639E-001	  9.47886E-001	  0.00000E+000	  0.00000E+000
  7.50000E-005	  9.53417E-001	  9.47491E-001	  0.00000E+000	  0.00000E+000
  1.00000E-004	  9.40824E-001	  9.41121E-001	  0.00000E+000	  0.00000E+000
  1.25000E-004	  9.47269E-001	  9.44182E-001	  0.00000E+000	  0.00000E+000
  1.50000E-004	  9.38281E-001	  9.40874E-001	  0.00000E+000	  0.00000E+000
  1.75000E-004	  9.36972E-001	  9.43195E-001	  0.00000E+000	  0.00000E+000
  2.00000E-004	  9.48577E-001	  9.48133E-001	  0.00000E+000	  0.00000E+000
  2.25000E-004	  9.40651E-001	  9.41516E-001	  0.00000E+000	  0.00000E+000
  2.50000E-004	  9.51590E-001	  9.56775E-001	  0.00000E+000	  0.00000E+000
  2.75000E-004	  9.55738E-001	  9.58849E-001	  0.00000E+000	  0.00000E+000
  3.00000E-004	  9.46380E-001	  9.51442E-001	  0.00000E+000	  0.00000E+000
  3.25000E-004	  9.53541E-001	  9.60479E-001	  0.00000E+000	  0.00000E+000
  3.50000E-004	  9.41565E-001	  9.31985E-001	  0.00000E+000	  0.00000E+000
  3.75000E-004	  9.43590E-001	  9.38355E-001	  0.00000E+000	  0.00000E+000
  4.00000E-004	  9.42245E-001	  9.38504E-001	  0.00000E+000	  0.00000E+000
  4.50000E-004	  9.48121E-001	  9.42800E-001	  0.00000E+000	  0.00000E+000
  5.00000E-004	  9.44775E-001	  9.49887E-001	  0.00000E+000	  0.00000E+000
  5.50000E-004	  9.43775E-001	  9.43393E-001	  0.00000E+000	  0.00000E+000
  6.00000E-004	  9.47282E-001	  9.48232E-001	  0.00000E+000	  0.00000E+000
  6.50000E-004	  9.42529E-001	  9.48948E-001	  0.00000E+000	  0.00000E+000
  7.00000E-004	  9.38158E-001	  9.39862E-001	  0.00000E+000	  0.00000E+000
  7.50000E-004	  9.44738E-001	  9.35985E-001	  0.00000E+000	  0.00000E+000
  8.00000E-004	  9.43270E-001	  9.39987E-001	  0.00000E+000	  0.00000E+000
  9.00000E-004	  9.43159E-001	  9.43233E-001	  0.00000E+000	  0.00000E+000
  1.00000E-003	  9.49171E-001	  9.56196E-001	  0.00000E+000	  0.00000E+000
  1.10000E-003	  9.45461E-001	  9.43072E-001	  0.00000E+000	  0.00000E+000
  1.20000E-003	  9.40177E-001	  9.41455E-001	  0.00000E+000	  0.00000E+000
  1.30000E-003	  9.40837E-001	  9.40060E-001	  0.00000E+000	  0.00000E+000
  1.40000E-003	  9.47214E-001	  9.48603E-001	  0.00000E+000	  0.00000E+000
  1.50000E-003	  9.44788E-001	  9.39825E-001	  0.00000E+000	  0.00000E+000
  1.60000E-003	  9.44792E-001	  9.40949E-001	  0.00000E+000	  0.00000E+000
  1.80000E-003	  9.46082E-001	  9.45289E-001	  0.00000E+000	  0.00000E+000
  2.00000E-003	  9.44662E-001	  9.45597E-001	  0.00000E+000	  0.00000E+000
  2.20000E-003	  9.42893E-001	  9.47239E-001	  0.00000E+000	  0.00000E+000
  2.40000E-003	  9.42106E-001	  9.45246E-001	  0.00000E+000	  0.00000E+000
  2.60000E-003	  9.41439E-001	  9.43226E-001	  0.00000E+000	  0.00000E+000
  2.80000E-003	  9.46628E-001	  9.43529E-001	  0.00000E+000	  0.00000E+000
  3.00000E-003	  9.43297E-001	  9.41862E-001	  0.00000E+000	  0.00000E+000
  3.20000E-003	  9.42395E-001	  9.43425E-001	  0.00000E+000	  0.00000E+000
  3.60000E-003	  9.44342E-001	  9.44076E-001	  0.00000E+000	  0.00000E+000
  4.00000E-003	  9.43162E-001	  9.43329E-001	  0.00000E+000	  0.00000E+000
  4.40000E-003	  9.44092E-001	  9.44841E-001	  0.00000E+000	  0.00000E+000
  4.80000E-003	  9.41254E-001	  9.42455E-001	  0.00000E+000	  0.00000E+000
  5.20000E-003	  9.43162E-001	  9.40104E-001	  0.00000E+000	  0.00000E+000
  5.60000E-003	  9.39889E-001	  9.41662E-001	  0.00000E+000	  0.00000E+000
  6.00000E-003	  9.43453E-001	  9.45121E-001	  0.00000E+000	  0.00000E+000
  6.40000E-003	  9.40246E-001	  9.38472E-001	  0.00000E+000	  0.00000E+000
  7.20000E-003	  9.40230E-001	  9.38502E-001	  0.00000E+000	  0.00000E+000
  8.00000E-003	  9.41082E-001	  9.39223E-001	  0.00000E+000	  0.00000E+000
  8.80000E-003	  9.40011E-001	  9.39248E-001	  0.00000E+000	  0.00000E+000
  9.60000E-003	  9.38781E-001	  9.38612E-001	  0.00000E+000	  0.00000E+000
  1.04000E-002	  9.40633E-001	  9.40766E-001	  0.00000E+000	  0.00000E+000
  1.12000E-002	  9.39632E-001	  9.39982E-001	  0.00000E+000	  0.00000E+000
  1.20000E-002	  9.37490E-001	  9.36926E-001	  0.00000E+000	  0.00000E+000
  1.28000E-002	  9.37186E-001	  9.37451E-001	  0.00000E+000	  0.00000E+000
  1.44000E-002	  9.39417E-001	  9.41737E-001	  0.00000E+000	  0.00000E+000
  1.60000E-002	  9.37435E-001	  9.37826E-001	  0.00000E+000	  0.00000E+000
  1.76000E-002	  9.38533E-001	  9.38220E-001	  0.00000E+000	  0.00000E+000
  1.92000E-002	  9.36259E-001	  9.34888E-001	  0.00000E+000	  0.00000E+000
  2.08000E-002	  9.35818E-001	  9.34179E-001	  0.00000E+000	  0.00000E+000
  2.24000E-002	  9.34543E-001	  9.34140E-001	  0.00000E+000	  0.00000E+000
  2.40000E-002	  9.33600E-001	  9.34668E-001	  0.00000E+000	  0.00000E+000
  2.56000E-002	  9.33707E-001	  9.34661E-001	  0.00000E+000	  0.00000E+000
  2.88000E-002	  9.32898E-001	  9.33406E-001	  0.00000E+000	  0.00000E+000
  3.20000E-002	  9.30095E-001	  9.30573E-001	  0.00000E+000	  0.00000E+000
  3.52000E-002	  9.29734E-001	  9.28861E-001	  0.00000E+000	  0.00000E+000
  3.84000E-002	  9.28478E-001	  9.29656E-001	  0.00000E+000	  0.00000E+000
  4.16000E-002	  9.27238E-001	  9.27431E-001	  0.00000E+000	  0.00000E+000
  4.48000E-002	  9.25377E-001	  9.24409E-001	  0.00000E+000	  0.00000E+000
  4.80000E-002	  9.24560E-001	  9.25199E-001	  0.00000E+000	  0.00000E+000
  5.12000E-002	  9.22295E-001	  9.23009E-001	  0.00000E+000	  0.00000E+000
  5.76000E-002	  9.20304E-001	  9.19611E-001	  0.00000E+000	  0.00000E+000
  6.40000E-002	  9.16914E-001	  9.16886E-001	  0.00000E+000	  0.00000E+000
  7.04000E-002	  9.14184E-001	  9.14393E-001	  0.00000E+000	  0.00000E+000
  7.68000E-002	  9.11295E-001	  9.11142E-001	  0.00000E+000	  0.00000E+000
  8.32000E-002	  9.08864E-001	  9.09213E-001	  0.00000E+000	  0.00000E+000
  8.96000E-002	  9.06396E-001	  9.06172E-001	  0.00000E+000	  0.00000E+000
  9.60000E-002	  9.03948E-001	  9.04198E-001	  0.00000E+000	  0.00000E+000
  1.02400E-001	  9.00499E-001	  9.00321E-001	  0.00000E+000	  0.00000E+000
  1.15200E-001	  8.95482E-001	  8.95486E-001	  0.00000E+000	  0.00000E+000
  1.28000E-001	  8.90216E-001	  8.90126E-001	  0.00000E+000	  0.00000E+000
  1.40800E-001	  8.84924E-001	  8.85065E-001	  0.00000E+000	  0.00000E+000
  1.53600E-001	  8.79733E-001	  8.79303E-001	  0.00000E+000	  0.00000E+000
  1.66400E-001	  8.74210E-001	  8.74076E-001	  0.00000E+000	  0.00000E+000
  1.79200E-001	  8.69616E-001	  8.69745E-001	  0.00000E+000	  0.00000E+000
  1.92000E-001	  8.64465E-001	  8.64446E-001	  0.00000E+000	  0.00000E+000
  2.04800E-001	  8.59340E-001	  8.59321E-001	  0.00000E+000	  0.00000E+000
  2.30400E-001	  8.49243E-001	  8.49212E-001	  0.00000E+000	  0.00000E+000
  2.56000E-001	  8.39738E-001	  8.39999E-001	  0.00000E+000	  0.00000E+000
  2.81600E-001	  8.29760E-001	  8.29493E-001	  0.00000E+000	  0.00000E+000
  3.07200E-001	  8.19632E-001	  8.19397E-001	  0.00000E+000	  0.00000E+000
  3.32800E-001	  8.10203E-001	  8.10574E-001	  0.00000E+000	  0.00000E+000
  3.58400E-001	  8.00937E-001	  8.00685E-001	  0.00000E+000	  0.00000E+000
  3.84000E-001	  7.91439E-001	  7.91401E-001	  0.00000E+000	  0.00000E+000
  4.09600E-001	  7.82495E-001	  7.82496E-001	  0.00000E+000	  0.00000E+000
  4.60800E-001	  7.64577E-001	  7.65054E-001	  0.00000E+000	  0.00000E+000
  5.12000E-001	  7.47218E-001	  7.47609E-001	  0.00000E+000	  0.00000E+000
  5.63200E-001	  7.30320E-001	  7.30522E-001	  0.00000E+000	  0.00000E+000
  6.14400E-001	  7.13815E-001	  7.14047E-001	  0.00000E+000	  0.00000E+000
  6.65600E-001	  6.97800E-001	  6.97963E-001	  0.00000E+000	  0.00000E+000
  7.16800E-001	  6.81943E-001	  6.82058E-001	  0.00000E+000	  0.00000E+000
  7.68000E-001	  6.66579E-001	  6.66348E-001	  0.00000E+000	  0.00000E+000
  8.19200E-001	  6.51533E-001	  6.51587E-001	  0.00000E+000	  0.00000E+000
  9.21600E-001	  6.22786E-001	  6.23237E-001	  0.00000E+000	  0.00000E+000
  1.02400E+000	  5.95020E-001	  5.95465E-001	  0.00000E+000	  0.00000E+000
  1.12640E+000	  5.67956E-001	  5.68330E-001	  0.00000E+000	  0.00000E+000
  1.22880E+000	  5.42232E-001	  5.42685E-001	  0.00000E+000	  0.00000E+000
  1.33120E+000	  5.17207E-001	  5.17875E-001	  0.00000E+000	  0.00000E+000
  1.43360E+000	  4.93631E-001	  4.94354E-001	  0.00000E+000	  0.00000E+000
  1.53600E+000	  4.71136E-001	  4.71826E-001	  0.00000E+000	  0.00000E+000
  1.63840E+000	  4.49899E-001	  4.50481E-001	  0.00000E+000	  0.00000E+000
  1.84320E+000	  4.09896E-001	  4.10349E-001	  0.00000E+000	  0.00000E+000
  2.04800E+000	  3.73709E-001	  3.74275E-001	  0.00000E+000	  0.00000E+000
  2.25280E+000	  3.41039E-001	  3.41336E-001	  0.00000E+000	  0.00000E+000
  2.45760E+000	  3.11385E-001	  3.11627E-001	  0.00000E+000	  0.00000E+000
  2.66240E+000	  2.84305E-001	  2.84281E-001	  0.00000E+000	  0.00000E+000
  2.86720E+000	  2.58552E-001	  2.58352E-001	  0.00000E+000	  0.00000E+000
  3.07200E+000	  2.34492E-001	  2.34435E-001	  0.00000E+000	  0.00000E+000
  3.27680E+000	  2.13429E-001	  2.13297E-001	  0.00000E+000	  0.00000E+000
  3.68640E+000	  1.74993E-001	  1.75042E-001	  0.00000E+000	  0.00000E+000
  4.09600E+000	  1.42460E-001	  1.42453E-001	  0.00000E+000	  0.00000E+000
  4.50560E+000	  1.16231E-001	  1.16322E-001	  0.00000E+000	  0.00000E+000
  4.91520E+000	  9.61641E-002	  9.59559E-002	  0.00000E+000	  0.00000E+000
  5.32480E+000	  7.91701E-002	  7.89464E-002	  0.00000E+000	  0.00000E+000
  5.73440E+000	  6.55174E-002	  6.50593E-002	  0.00000E+000	  0.00000E+000
  6.14400E+000	  5.43514E-002	  5.38201E-002	  0.00000E+000	  0.00000E+000
  6.55360E+000	  4.46270E-002	  4.37659E-002	  0.00000E+000	  0.00000E+000
  7.37280E+000	  3.12057E-002	  3.06929E-002	  0.00000E+000	  0.00000E+000
  8.19200E+000	  2.33818E-002	  2.36815E-002	  0.00000E+000	  0.00000E+000
  9.01120E+000	  1.71756E-002	  1.77851E-002	  0.00000E+000	  0.00000E+000
  9.83040E+000	  1.69386E-002	  1.78407E-002	  0.00000E+000	  0.00000E+000
  1.06496E+001	  1.84716E-002	  1.88070E-002	  0.00000E+000	  0.00000E+000
  1.14688E+001	  2.09945E-002	  2.12886E-002	  0.00000E+000	  0.00000E+000
  1.22880E+001	  2.46816E-002	  2.47815E-002	  0.00000E+000	  0.00000E+000
  1.31072E+001	  3.19398E-002	  3.23202E-002	  0.00000E+000	  0.00000E+000
  1.47456E+001	  4.43694E-002	  4.43604E-002	  0.00000E+000	  0.00000E+000
  1.63840E+001	  4.71246E-002	  4.71586E-002	  0.00000E+000	  0.00000E+000
  1.80224E+001	  3.91280E-002	  3.90676E-002	  0.00000E+000	  0.00000E+000
  1.96608E+001	  2.41865E-002	  2.43571E-002	  0.00000E+000	  0.00000E+000
  2.12992E+001	  1.37886E-002	  1.41425E-002	  0.00000E+000	  0.00000E+000
  2.29376E+001	  2.05201E-002	  2.11069E-002	  0.00000E+000	  0.00000E+000
  2.45760E+001	  2.75293E-002	  2.79178E-002	  0.00000E+000	  0.00000E+000
  2.62144E+001	  3.63898E-002	  3.69758E-002	  0.00000E+000	  0.00000E+000
  2.94912E+001	  3.82392E-002	  3.75789E-002	  0.00000E+000	  0.00000E+000
  3.27680E+001	  3.80644E-002	  3.70304E-002	  0.00000E+000	  0.00000E+000
  3.60448E+001	  9.36608E-003	  9.30915E-003	  0.00000E+000	  0.00000E+000
  3.93216E+001	 -1.04160E-002	 -1.06251E-002	  0.00000E+000	  0.00000E+000
  4.25984E+001	 -4.63087E-003	 -4.56638E-003	  0.00000E+000	  0.00000E+000
  4.58752E+001	 -4.70576E-004	 -3.69330E-004	  0.00000E+000	  0.00000E+000
  4.91520E+001	  5.72339E-003	  6.13870E-003	  0.00000E+000	  0.00000E+000
  5.24288E+001	 -6.65639E-003	 -6.84694E-003	  0.00000E+000	  0.00000E+000
  5.89824E+001	 -5.81282E-003	 -5.60403E-003	  0.00000E+000	  0.00000E+000
  6.55360E+001	  1.64253E-002	  1.64362E-002	  0.00000E+000	  0.00000E+000
  7.20896E+001	  2.38929E-002	  2.38078E-002	  0.00000E+000	  0.00000E+000
  7.86432E+001	  1.41683E-002	  1.42138E-002	  0.00000E+000	  0.00000E+000
  8.51968E+001	  3.76477E-003	  3.64512E-003	  0.00000E+000	  0.00000E+000
  9.17504E+001	  6.83826E-003	  6.94249E-003	  0.00000E+000	  0.00000E+000
  9.83040E+001	  1.22508E-002	  1.18558E-002	  0.00000E+000	  0.00000E+000
  1.04858E+002	  4.06734E-004	  3.29913E-004	  0.00000E+000	  0.00000E+000
  1.17965E+002	 -1.11314E-002	 -1.13094E-002	  0.00000E+000	  0.00000E+000
  1.31072E+002	 -2.57646E-003	 -2.67524E-003	  0.00000E+000	  0.00000E+000
  1.44179E+002	 -1.68650E-002	 -1.66673E-002	  0.00000E+000	  0.00000E+000
  1.57286E+002	 -1.60469E-002	 -1.60115E-002	  0.00000E+000	  0.00000E+000
  1.70394E+002	 -3.86172E-003	 -4.00986E-003	  0.00000E+000	  0.00000E+000
  1.83501E+002	  5.23286E-003	  5.29678E-003	  0.00000E+000	  0.00000E+000
  1.96608E+002	 -1.51849E-003	 -2.34250E-003	  0.00000E+000	  0.00000E+000
  2.09715E+002	 -1.53676E-003	 -1.86722E-003	  0.00000E+000	  0.00000E+000
  2.35930E+002	  7.87809E-003	  7.64095E-003	  0.00000E+000	  0.00000E+000
  2.62144E+002	  6.06744E-003	  6.24795E-003	  0.00000E+000	  0.00000E+000
  2.88358E+002	  1.00885E-003	  7.38493E-004	  0.00000E+000	  0.00000E+000
  3.14573E+002	 -1.24976E-003	 -9.14733E-004	  0.00000E+000	  0.00000E+000
  3.40787E+002	  9.78456E-003	  1.00470E-002	  0.00000E+000	  0.00000E+000
  3.67002E+002	  4.38724E-003	  4.41718E-003	  0.00000E+000	  0.00000E+000
  3.93216E+002	  6.57538E-003	  6.70640E-003	  0.00000E+000	  0.00000E+000
  4.19430E+002	  5.30425E-003	  5.64374E-003	  0.00000E+000	  0.00000E+000
  4.71859E+002	  4.32977E-003	  4.50488E-003	  0.00000E+000	  0.00000E+000
  5.24288E+002	 -9.63373E-003	 -9.76134E-003	  0.00000E+000	  0.00000E+000
  5.76717E+002	  5.17686E-003	  5.16311E-003	  0.00000E+000	  0.00000E+000
  6.29146E+002	  2.23742E-003	  2.34863E-003	  0.00000E+000	  0.00000E+000
  6.81574E+002	 -3.95058E-003	 -3.90718E-003	  0.00000E+000	  0.00000E+000
  7.34003E+002	 -1.18881E-003	 -1.12266E-003	  0.00000E+000	  0.00000E+000
  7.86432E+002	  5.00390E-003	  5.18402E-003	  0.00000E+000	  0.00000E+000
  8.38861E+002	  5.78624E-003	  5.88055E-003	  0.00000E+000	  0.00000E+000
  9.43718E+002	 -2.31654E-003	 -2.29570E-003	  0.00000E+000	  0.00000E+000
  1.04858E+003	  4.16698E-003	  4.30913E-003	  0.00000E+000	  0.00000E+000
  1.15343E+003	 -4.52863E-004	 -6.44882E-004	  0.00000E+000	  0.00000E+000
  1.25829E+003	  2.71811E-003	  2.62332E-003	  0.00000E+000	  0.00000E+000
  1.36315E+003	 -7.67965E-003	 -7.42687E-003	  0.00000E+000	  0.00000E+000
  1.46801E+003	 -1.50030E-003	 -1.27655E-003	  0.00000E+000	  0.00000E+000
  1.57286E+003	  4.92652E-004	  4.87148E-004	  0.00000E+000	  0.00000E+000
  1.67772E+003	 -9.11757E-003	 -8.88591E-003	  0.00000E+000	  0.00000E+000
  1.88744E+003	 -1.11735E-003	 -8.27212E-004	  0.00000E+000	  0.00000E+000
  2.09715E+003	 -1.10459E-002	 -1.10272E-002	  0.00000E+000	  0.00000E+000
  2.30687E+003	 -3.80966E-003	 -3.69336E-003	  0.00000E+000	  0.00000E+000
  2.51658E+003	 -3.93690E-003	 -4.10650E-003	  0.00000E+000	  0.00000E+000
  2.72630E+003	 -2.83415E-003	 -2.81315E-003	  0.00000E+000	  0.00000E+000
  2.93601E+003	 -4.20037E-003	 -4.37482E-003	  0.00000E+000	  0.00000E+000
  3.14573E+003	 -6.88848E-005	  4.72276E-005	  0.00000E+000	  0.00000E+000

"Count Rate"
       0.03906	     247.38731	     244.62636	     247.38731	     244.62636
       0.07813	     257.89432	     264.54108	     257.89432	     264.54108
       0.11719	     560.09186	     559.40161	     560.09186	     559.40161
       0.15625	     360.63788	     365.49515	     360.63788	     365.49515
       0.19531	     210.88126	     211.06021	     210.88126	     211.06021
       0.23438	     365.41846	     365.39288	     365.41846	     365.39288
       0.27344	     125.06136	     124.21773	     125.06136	     124.21773
       0.31250	     342.33374	     339.29156	     342.33374	     339.29156
       0.35156	     295.39737	     293.58231	     295.39737	     293.58231
       0.39063	     352.94299	     363.60336	     352.94299	     363.60336
       0.42969	     272.18484	     266.94412	     272.18484	     266.94412
       0.46875	     295.98535	     295.85754	     295.98535	     295.85754
       0.50781	     331.67334	     326.35596	     331.67334	     326.35596
       0.54688	     207.37894	     204.77136	     207.37894	     204.77136
       0.58594	     312.24435	     308.20517	     312.24435	     308.20517
       0.62500	     413.40295	     409.97729	     413.40295	     409.97729
       0.66406	     345.73380	     344.96689	     345.73380	     344.96689
       0.70313	     226.14325	     223.48454	     226.14325	     223.48454
       0.74219	     172.43231	     173.45488	     172.43231	     173.45488
       0.78125	     239.74355	     241.35410	     239.74355	     241.35410
       0.82031	     216.83778	     217.50246	     216.83778	     217.50246
       0.85938	     246.08353	     244.24289	     246.08353	     244.24289
       0.89844	     332.84930	     333.25836	     332.84930	     333.25836
       0.93750	     197.79225	     199.27499	     197.79225	     199.27499
       0.97656	     364.39587	     369.32980	     364.39587	     369.32980
       1.01563	     221.49051	     224.22591	     221.49051	     224.22591
       1.05469	     291.69052	     281.89935	     291.69052	     281.89935
       1.09375	     225.27405	     227.34477	     225.27405	     227.34477
       1.13281	     117.21307	     115.85815	     117.21307	     115.85815
       1.17188	     340.23746	     342.07809	     340.23746	     342.07809
       1.21094	     384.92413	     385.17978	     384.92413	     385.17978
       1.25000	     316.00235	     310.94058	     316.00235	     310.94058
       1.28906	     202.16377	     203.87660	     202.16377	     203.87660
       1.32813	     231.40953	     232.12534	     231.40953	     232.12534
       1.36719	     211.06021	     213.74448	     211.06021	     213.74448
       1.40625	     263.85083	     264.87341	     263.85083	     264.87341
       1.44531	     291.40933	     289.10852	     291.40933	     289.10852
       1.48438	     214.97157	     214.17908	     214.97157	     214.17908
       1.52344	     156.96581	     160.16136	     156.96581	     160.16136
       1.56250	     235.78105	     237.46831	     235.78105	     237.46831
       1.60156	     284.76257	     282.28281	     284.76257	     282.28281
       1.64063	     408.49457	     411.86908	     408.49457	     411.86908
       1.67969	     240.58717	     242.47894	     240.58717	     242.47894
       1.71875	     221.61833	     214.15352	     221.61833	     214.15352
       1.75781	     174.37521	     176.52263	     174.37521	     176.52263
       1.79688	     137.66464	     133.93222	     137.66464	     133.93222
       1.83594	     338.95923	     335.17569	     338.95923	     335.17569
       1.87500	     337.83438	     337.60431	     337.83438	     337.60431
       1.91406	     283.04974	     286.60321	     283.04974	     286.60321
       1.95313	     335.22681	     327.88980	     335.22681	     327.88980
       1.99219	     138.04811	     136.64206	     138.04811	     136.64206
       2.03125	     313.44589	     312.09097	     313.44589	     312.09097
       2.07031	     228.44405	     227.31921	     228.44405	     227.31921
       2.10938	     334.71552	     338.14117	     334.71552	     338.14117
       2.14844	     328.06876	     333.07941	     328.06876	     333.07941
       2.18750	     405.81030	     402.33353	     405.81030	     402.33353
       2.22656	     356.24081	     362.91312	     356.24081	     362.91312
       2.26563	     222.64091	     222.35971	     222.64091	     222.35971
       2.30469	     251.47763	     243.88498	     251.47763	     243.88498
       2.34375	     305.06076	     303.01559	     305.06076	     303.01559
       2.38281	     181.96785	     176.62488	     181.96785	     176.62488
       2.42188	     170.66837	     167.65175	     170.66837	     167.65175
       2.46094	     277.63007	     279.90530	     277.63007	     279.90530
       2.50000	     208.37595	     208.86166	     208.37595	     208.86166
       2.53906	     201.37128	     194.54556	     201.37128	     194.54556
       2.57813	     247.71965	     248.84450	     247.71965	     248.84450
       2.61719	     472.53354	     472.71249	     472.53354	     472.71249
       2.65625	     218.88293	     218.49947	     218.88293	     218.49947
       2.69531	     241.43080	     239.76910	     241.43080	     239.76910
       2.73438	     196.64186	     196.92307	     196.64186	     196.92307
       2.77344	     269.34720	     261.16656	     269.34720	     261.16656
       2.81250	     453.79480	     452.74664	     453.79480	     452.74664
       2.85156	     450.06238	     452.05643	     450.06238	     452.05643
       2.89063	     594.55273	     586.96008	     594.55273	     586.96008
       2.92969	     381.26840	     386.73920	     381.26840	     386.73920
       2.96875	     155.40637	     154.23041	     155.40637	     154.23041
       3.00781	     241.40523	     241.99321	     241.40523	     241.99321
       3.04688	     313.26694	     322.47015	     313.26694	     322.47015
       3.08594	     328.86127	     329.34698	     328.86127	     329.34698
       3.12500	     231.33284	     231.38396	     231.33284	     231.38396
       3.16406	     344.73679	     350.13089	     344.73679	     350.13089
       3.20313	     345.45261	     349.74744	     345.45261	     349.74744
       3.24219	     371.60504	     374.77502	     371.60504	     374.77502
       3.28125	     287.47238	     292.38077	     287.47238	     292.38077
       3.32031	     377.74051	     387.37833	     377.74051	     387.37833
       3.35938	     197.97121	     198.78928	     197.97121	     198.78928
       3.39844	     406.80731	     404.55765	     406.80731	     404.55765
       3.43750	     325.00104	     318.14975	     325.00104	     318.14975
       3.47656	     203.10966	     206.22853	     203.10966	     206.22853
       3.51563	     171.46086	     180.17834	     171.46086	     180.17834
       3.55469	     255.72133	     257.43414	     255.72133	     257.43414
       3.59375	     204.15781	     207.12329	     204.15781	     207.12329
       3.63281	     438.58395	     446.17657	     438.58395	     446.17657
       3.67188	     480.10062	     486.13385	     480.10062	     486.13385
       3.71094	     281.87378	     280.08426	     281.87378	     280.08426
       3.75000	     203.74878	     206.96989	     203.74878	     206.96989
       3.78906	     312.88348	     311.24734	     312.88348	     311.24734
       3.82813	     209.34740	     206.66313	     209.34740	     206.66313
       3.86719	     340.90213	     338.49905	     340.90213	     338.49905
       3.90625	     179.46254	     178.87456	     179.46254	     178.87456
       3.94531	     250.07158	     253.49722	     250.07158	     253.49722
       3.98438	     216.53101	     208.32481	     216.53101	     208.32481
       4.02344	     665.05951	     667.97388	     665.05951	     667.97388
       4.06250	     341.10663	     341.61792	     341.10663	     341.61792
       4.10156	     275.48267	     273.46307	     275.48267	     273.46307
       4.14063	     408.31561	     410.79538	     408.31561	     410.79538
       4.17969	     313.93161	     317.25500	     313.93161	     317.25500
       4.21875	     303.06671	     306.03220	     303.06671	     306.03220
       4.25781	     428.99725	     433.41992	     428.99725	     433.41992
       4.29688	     339.64948	     338.19229	     339.64948	     338.19229
       4.33594	     261.67786	     262.72598	     261.67786	     262.72598
       4.37500	     222.99883	     222.69205	     222.99883	     222.69205
       4.41406	     428.51154	     432.67856	     428.51154	     432.67856
       4.45313	     231.99751	     235.47427	     231.99751	     235.47427
       4.49219	     558.91589	     565.12805	     558.91589	     565.12805
       4.53125	     261.95905	     261.21768	     261.95905	     261.21768
       4.57031	     222.87100	     220.21230	     222.87100	     220.21230
       4.60938	     423.47534	     417.72333	     423.47534	     417.72333
       4.64844	     265.30801	     260.16956	     265.30801	     260.16956
       4.68750	     405.12006	     405.37570	     405.12006	     405.37570
       4.72656	     224.02139	     226.52672	     224.02139	     226.52672
       4.76563	     231.53735	     233.30130	     231.53735	     233.30130
       4.80469	     330.90643	     334.05084	     330.90643	     334.05084
       4.84375	     249.27908	     252.60246	     249.27908	     252.60246
       4.88281	     271.75024	     272.05704	     271.75024	     272.05704
       4.92188	     265.33356	     264.43881	     265.33356	     264.43881
       4.96094	     222.58978	     219.85439	     222.58978	     219.85439
       5.00000	     210.54892	     219.08745	     210.54892	     219.08745
       5.03906	     232.71332	     231.79300	     232.71332	     231.79300
       5.07813	     264.59219	     272.41492	     264.59219	     272.41492
       5.11719	     245.93015	     250.63400	     245.93015	     250.63400
       5.15625	     144.77156	     143.08430	     144.77156	     143.08430
       5.19531	     267.73663	     268.27347	     267.73663	     268.27347
       5.23438	     407.88101	     408.59683	     407.88101	     408.59683
       5.27344	     432.09058	     433.16428	     432.09058	     433.16428
       5.31250	     215.53400	     212.36400	     215.53400	     212.36400
       5.35156	     176.72714	     175.96021	     176.72714	     175.96021
       5.39063	     186.95293	     186.69728	     186.95293	     186.69728
       5.42969	     197.71556	     195.72154	     197.71556	     195.72154
       5.46875	     169.62022	     168.26530	     169.62022	     168.26530
       5.50781	     360.99579	     361.02136	     360.99579	     361.02136
       5.54688	     312.06540	     312.96017	     312.06540	     312.96017
       5.58594	     230.48921	     225.86205	     230.48921	     225.86205
       5.62500	     198.27798	     200.34871	     198.27798	     200.34871
       5.66406	     378.91647	     380.96164	     378.91647	     380.96164
       5.70313	     262.21469	     261.55002	     262.21469	     261.55002
       5.74219	     241.86539	     239.07887	     241.86539	     239.07887
       5.78125	     230.84711	     225.50414	     230.84711	     225.50414
       5.82031	     192.34703	     192.14252	     192.34703	     192.14252
       5.85938	     196.56516	     201.29459	     196.56516	     201.29459
       5.89844	     247.59183	     252.19344	     247.59183	     252.19344
       5.93750	     359.87097	     362.42740	     359.87097	     362.42740
       5.97656	     211.85271	     211.75046	     211.85271	     211.75046
       6.01563	     328.47778	     335.63583	     328.47778	     335.63583
       6.05469	     222.46196	     220.57019	     222.46196	     220.57019
       6.09375	     252.06561	     259.01913	     252.06561	     259.01913
       6.13281	     201.11563	     202.64951	     201.11563	     202.64951
       6.17188	     141.24367	     138.32932	     141.24367	     138.32932
       6.21094	     232.99452	     229.51776	     232.99452	     229.51776
       6.25000	     365.75079	     367.08014	     365.75079	     367.08014
       6.28906	     291.74167	     285.27386	     291.74167	     285.27386
       6.32813	     192.42372	     188.97252	     192.42372	     188.97252
       6.36719	     236.31790	     238.87434	     236.31790	     238.87434
       6.40625	     285.91296	     289.00626	     285.91296	     289.00626
       6.44531	     215.78964	     217.09343	     215.78964	     217.09343
       6.48438	     138.63609	     142.18954	     138.63609	     142.18954
       6.52344	     276.17291	     274.12775	     276.17291	     274.12775
       6.56250	     231.76743	     231.38396	     231.76743	     231.38396
       6.60156	     337.91107	     335.81479	     337.91107	     335.81479
       6.64063	     300.30576	     298.61850	     300.30576	     298.61850
       6.67969	     325.25668	     329.09134	     325.25668	     329.09134
       6.71875	     398.42218	     393.20703	     398.42218	     393.20703
       6.75781	     230.43808	     230.51477	     230.43808	     230.51477
       6.79688	     371.37497	     371.09375	     371.37497	     371.09375
       6.83594	     407.93216	     409.26151	     407.93216	     409.26151
       6.87500	     306.41565	     303.50131	     306.41565	     303.50131
       6.91406	     228.80196	     227.03801	     228.80196	     227.03801
       6.95313	     219.18971	     214.33246	     219.18971	     214.33246
       6.99219	     276.42856	     274.35782	     276.42856	     274.35782
       7.03125	     452.84891	     443.10886	     452.84891	     443.10886
       7.07031	     267.96671	     270.36978	     267.96671	     270.36978
       7.10938	     150.62582	     149.70551	     150.62582	     149.70551
       7.14844	     294.98834	     305.03519	     294.98834	     305.03519
       7.18750	     142.87979	     140.06770	     142.87979	     140.06770
       7.22656	     372.57651	     373.34341	     372.57651	     373.34341
       7.26563	     276.24960	     272.95178	     276.24960	     272.95178
       7.30469	     336.40277	     339.26599	     336.40277	     339.26599
       7.34375	     326.17700	     329.09134	     326.17700	     329.09134
       7.38281	     349.41510	     348.41809	     349.41510	     348.41809
       7.42188	     256.36044	     260.45074	     256.36044	     260.45074
       7.46094	     338.03891	     336.35165	     338.03891	     336.35165
       7.50000	     451.77521	     450.44586	     451.77521	     450.44586
       7.53906	     333.15610	     328.01764	     333.15610	     328.01764
       7.57813	     404.25085	     398.34549	     404.25085	     398.34549
       7.61719	     251.37537	     250.68513	     251.37537	     250.68513
       7.65625	     262.52148	     263.56961	     262.52148	     263.56961
       7.69531	     197.12758	     196.43735	     197.12758	     196.43735
       7.73438	     289.72208	     287.03781	     289.72208	     287.03781
       7.77344	     184.08971	     180.02495	     184.08971	     180.02495
       7.81250	     163.05016	     160.36588	     163.05016	     160.36588
       7.85156	     200.85999	     201.47354	     200.85999	     201.47354
       7.89063	     268.12009	     266.27945	     268.12009	     266.27945
       7.92969	     328.29886	     330.34399	     328.29886	     330.34399
       7.96875	     498.07245	     502.90414	     498.07245	     502.90414
       8.00781	     288.62280	     292.38077	     288.62280	     292.38077
       8.04688	     183.16939	     185.95592	     183.16939	     185.95592
       8.08594	     242.65790	     242.96466	     242.65790	     242.96466
       8.12500	     312.88348	     315.00531	     312.88348	     315.00531
       8.16406	     276.58194	     273.51419	     276.58194	     273.51419
       8.20313	     245.11208	     246.03239	     245.11208	     246.03239
       8.24219	     360.51007	     360.53564	     360.51007	     360.53564
       8.28125	     276.63306	     281.92490	     276.63306	     281.92490
       8.32031	     338.19229	     342.28259	     338.19229	     342.28259
       8.35938	     368.20499	     364.95828	     368.20499	     364.95828
       8.39844	     284.73700	     285.50394	     284.73700	     285.50394
       8.43750	     336.17270	     333.07941	     336.17270	     333.07941
       8.47656	     417.82559	     410.25851	     417.82559	     410.25851
       8.51563	     561.80463	     555.26013	     561.80463	     555.26013
       8.55469	     406.55167	     411.05103	     406.55167	     411.05103
       8.59375	     296.34326	     295.16730	     296.34326	     295.16730
       8.63281	     252.65359	     250.45505	     252.65359	     250.45505
       8.67188	     188.00107	     192.11694	     188.00107	     192.11694
       8.71094	     228.77638	     226.60341	     228.77638	     226.60341
       8.75000	     172.38118	     170.20821	     172.38118	     170.20821
       8.78906	     215.96860	     211.11134	     215.96860	     211.11134
       8.82813	     215.63625	     214.28134	     215.63625	     214.28134
       8.86719	     330.52295	     331.05981	     330.52295	     331.05981
       8.90625	     154.58832	     155.76428	     154.58832	     155.76428
       8.94531	     416.06165	     413.27512	     416.06165	     413.27512
       8.98438	     210.42110	     210.75343	     210.42110	     210.75343
       9.02344	     185.75139	     182.58141	     185.75139	     182.58141
       9.06250	     198.99379	     201.21790	     198.99379	     201.21790
       9.10156	     193.44630	     195.26137	     193.44630	     195.26137
       9.14063	     261.67786	     255.84915	     261.67786	     255.84915
       9.17969	     332.51697	     332.87488	     332.51697	     332.87488
       9.21875	     170.71948	     170.64279	     170.71948	     170.64279
       9.25781	     272.84952	     277.34888	     272.84952	     277.34888
       9.29688	     205.30821	     210.67674	     205.30821	     210.67674
       9.33594	     264.82227	     266.33060	     264.82227	     266.33060
       9.37500	     278.32031	     278.09024	     278.32031	     278.09024
       9.41406	     243.14362	     244.90756	     243.14362	     244.90756
       9.45313	      99.85480	     102.05334	      99.85480	     102.05334
       9.49219	     529.97693	     529.03101	     529.97693	     529.03101
       9.53125	     328.86127	     329.70490	     328.86127	     329.70490
       9.57031	     189.02365	     186.82510	     189.02365	     186.82510
       9.60938	     222.71761	     223.76575	     222.71761	     223.76575
       9.64844	     198.17572	     195.46590	     198.17572	     195.46590
       9.68750	     202.18935	     199.55620	     202.18935	     199.55620
       9.72656	     184.77994	     184.65211	     184.77994	     184.65211
       9.76563	     226.93575	     230.89824	     226.93575	     230.89824
       9.80469	     291.71609	     291.33264	     291.71609	     291.33264
       9.84375	     550.47961	     548.15326	     550.47961	     548.15326
       9.88281	     437.40799	     447.65933	     437.40799	     447.65933

Monitor Diode	  40883.46

"Cumulant 1.Order"
FluctuationFreq. [1/ms]	 2.2780E-001
DiffCoefficient [µm²/s]	 1.8229E+000
Hydrodyn. Radius [nm]	 1.3372E+002

"Cumulant 2.Order"
FluctuationFreq. [1/ms]	 2.2417E-001
DiffCoefficient [µm²/s]	 1.7939E+000
Hydrodyn. Radius [nm]	 1.3588E+002
Expansion Parameter µ2	-2.6055E-003

"Cumulant 3.Order"
FluctuationFreq. [1/ms]	 2.3021E-001
DiffCoefficient [µm²/s]	 1.8422E+000
Hydrodyn. Radius [nm]	 1.3232E+002
Expansion Parameter µ2	 8.2894E-003
Expansion Parameter µ3	 5.9395E-003

"StandardDeviation"
  2.50000E-005	  2.88446E-002
  5.00000E-005	  2.88450E-002
  7.50000E-005	  2.88453E-002
  1.00000E-004	  2.88454E-002
  1.25000E-004	  2.88458E-002
  1.50000E-004	  2.88459E-002
  1.75000E-004	  2.88462E-002
  2.00000E-004	  2.88465E-002
  2.25000E-004	  2.88447E-002
  2.50000E-004	  2.88458E-002
  2.75000E-004	  2.88456E-002
  3.00000E-004	  2.88436E-002
  3.25000E-004	  2.88447E-002
  3.50000E-004	  2.88429E-002
  3.75000E-004	  2.88429E-002
  4.00000E-004	  2.85045E-002
  4.50000E-004	  2.85041E-002
  5.00000E-004	  2.85044E-002
  5.50000E-004	  2.85045E-002
  6.00000E-004	  2.85041E-002
  6.50000E-004	  2.85046E-002
  7.00000E-004	  2.85055E-002
  7.50000E-004	  2.85044E-002
  8.00000E-004	  2.83337E-002
  9.00000E-004	  2.83336E-002
  1.00000E-003	  2.83327E-002
  1.10000E-003	  2.83332E-002
  1.20000E-003	  2.83344E-002
  1.30000E-003	  2.83343E-002
  1.40000E-003	  2.83331E-002
  1.50000E-003	  2.83335E-002
  1.60000E-003	  2.82475E-002
  1.80000E-003	  2.82468E-002
  2.00000E-003	  2.82472E-002
  2.20000E-003	  2.82477E-002
  2.40000E-003	  2.82480E-002
  2.60000E-003	  2.82482E-002
  2.80000E-003	  2.82470E-002
  3.00000E-003	  2.82479E-002
  3.20000E-003	  2.82047E-002
  3.60000E-003	  2.82033E-002
  4.00000E-003	  2.82037E-002
  4.40000E-003	  2.82036E-002
  4.80000E-003	  2.82045E-002
  5.20000E-003	  2.82041E-002
  5.60000E-003	  2.82052E-002
  6.00000E-003	  2.82042E-002
  6.40000E-003	  2.81834E-002
  7.20000E-003	  2.81818E-002
  8.00000E-003	  2.81817E-002
  8.80000E-003	  2.81822E-002
  9.60000E-003	  2.81828E-002
  1.04000E-002	  2.81823E-002
  1.12000E-002	  2.81828E-002
  1.20000E-002	  2.81838E-002
  1.28000E-002	  2.81721E-002
  1.44000E-002	  2.81679E-002
  1.60000E-002	  2.81688E-002
  1.76000E-002	  2.81687E-002
  1.92000E-002	  2.81699E-002
  2.08000E-002	  2.81702E-002
  2.24000E-002	  2.81709E-002
  2.40000E-002	  2.81716E-002
  2.56000E-002	  2.81636E-002
  2.88000E-002	  2.81571E-002
  3.20000E-002	  2.81590E-002
  3.52000E-002	  2.81592E-002
  3.84000E-002	  2.81599E-002
  4.16000E-002	  2.81605E-002
  4.48000E-002	  2.81616E-002
  4.80000E-002	  2.81618E-002
  5.12000E-002	  2.81550E-002
  5.76000E-002	  2.81424E-002
  6.40000E-002	  2.81445E-002
  7.04000E-002	  2.81457E-002
  7.68000E-002	  2.81471E-002
  8.32000E-002	  2.81479E-002
  8.96000E-002	  2.81486E-002
  9.60000E-002	  2.81489E-002
  1.02400E-001	  2.81393E-002
  1.15200E-001	  2.81140E-002
  1.28000E-001	  2.81161E-002
  1.40800E-001	  2.81175E-002
  1.53600E-001	  2.81167E-002
  1.66400E-001	  2.81179E-002
  1.79200E-001	  2.81166E-002
  1.92000E-001	  2.81160E-002
  2.04800E-001	  2.80946E-002
  2.30400E-001	  2.80515E-002
  2.56000E-001	  2.80482E-002
  2.81600E-001	  2.80470E-002
  3.07200E-001	  2.80405E-002
  3.32800E-001	  2.80365E-002
  3.58400E-001	  2.80278E-002
  3.84000E-001	  2.80207E-002
  4.09600E-001	  2.80172E-002
  4.60800E-001	  2.79041E-002
  5.12000E-001	  2.78753E-002
  5.63200E-001	  2.78444E-002
  6.14400E-001	  2.78089E-002
  6.65600E-001	  2.77716E-002
  7.16800E-001	  2.77270E-002
  7.68000E-001	  2.76765E-002
  8.19200E-001	  2.75848E-002
  9.21600E-001	  2.73722E-002
  1.02400E+000	  2.72383E-002
  1.12640E+000	  2.70916E-002
  1.22880E+000	  2.69557E-002
  1.33120E+000	  2.67792E-002
  1.43360E+000	  2.66016E-002
  1.53600E+000	  2.64128E-002
  1.63840E+000	  2.61213E-002
  1.84320E+000	  2.55737E-002
  2.04800E+000	  2.51615E-002
  2.25280E+000	  2.47298E-002
  2.45760E+000	  2.43330E-002
  2.66240E+000	  2.38927E-002
  2.86720E+000	  2.34663E-002
  3.07200E+000	  2.30262E-002
  3.27680E+000	  2.26249E-002
  3.68640E+000	  2.17893E-002
  4.09600E+000	  2.10872E-002
  4.50560E+000	  2.04152E-002
  4.91520E+000	  1.98435E-002
  5.32480E+000	  1.93916E-002
  5.73440E+000	  1.89861E-002
  6.14400E+000	  1.86553E-002
  6.55360E+000	  1.83021E-002
  7.37280E+000	  1.78351E-002
  8.19200E+000	  1.74458E-002
  9.01120E+000	  1.70012E-002
  9.83040E+000	  1.67379E-002
  1.06496E+001	  1.66029E-002
  1.14688E+001	  1.66844E-002
  1.22880E+001	  1.70211E-002
  1.31072E+001	  1.72768E-002
  1.47456E+001	  1.79408E-002
  1.63840E+001	  1.78152E-002
  1.80224E+001	  1.67467E-002
  1.96608E+001	  1.38543E-002
  2.12992E+001	  1.38543E-002
  2.29376E+001	  1.38543E-002
  2.45760E+001	  1.38543E-002
  2.62144E+001	  1.28496E-002
  2.94912E+001	  1.28496E-002
  3.27680E+001	  1.28496E-002
  3.60448E+001	  1.28496E-002
  3.93216E+001	  1.28496E-002
  4.25984E+001	  1.28496E-002
  4.58752E+001	  1.28496E-002
  4.91520E+001	  1.28496E-002
  5.24288E+001	  1.17667E-002
  5.89824E+001	  1.17667E-002
  6.55360E+001	  1.17667E-002
  7.20896E+001	  1.17667E-002
  7.86432E+001	  1.17667E-002
  8.51968E+001	  1.17667E-002
  9.17504E+001	  1.17667E-002
  9.83040E+001	  1.17667E-002
  1.04858E+002	  9.90938E-003
  1.17965E+002	  9.90938E-003
  1.31072E+002	  9.90938E-003
  1.44179E+002	  9.90938E-003
  1.57286E+002	  9.90938E-003
  1.70394E+002	  9.90938E-003
  1.83501E+002	  9.90938E-003
  1.96608E+002	  9.90938E-003
  2.09715E+002	  8.29190E-003
  2.35930E+002	  8.29190E-003
  2.62144E+002	  8.29190E-003
  2.88358E+002	  8.29190E-003
  3.14573E+002	  8.29190E-003
  3.40787E+002	  8.29190E-003
  3.67002E+002	  8.29190E-003
  3.93216E+002	  8.29190E-003
  4.19430E+002	  6.89919E-003
  4.71859E+002	  6.89919E-003
  5.24288E+002	  6.89919E-003
  5.76717E+002	  6.89919E-003
  6.29146E+002	  6.89919E-003
  6.81574E+002	  6.89919E-003
  7.34003E+002	  6.89919E-003
  7.86432E+002	  6.89919E-003
  8.38861E+002	  5.18837E-003
  9.43718E+002	  5.18837E-003
  1.04858E+003	  5.18837E-003
  1.15343E+003	  5.18837E-003
  1.25829E+003	  5.18837E-003
  1.36315E+003	  5.18837E-003
  1.46801E+003	  5.18837E-003
  1.57286E+003	  5.18837E-003
  1.67772E+003	  3.82250E-003
  1.88744E+003	  3.82250E-003
  2.09715E+003	  3.82250E-003
  2.30687E+003	  3.82250E-003
  2.51658E+003	  3.82250E-003
  2.72630E+003	  3.82250E-003
  2.93601E+003	  3.82250E-003
  3.14573E+003	  3.82250E-003
