ALV-7004/USB
Date :	"08.06.2022"
Time :	"14:36:09"
Samplename : 	"Samplename needed."
SampMemo(0) : 	""
SampMemo(1) : 	""
SampMemo(2) : 	""
SampMemo(3) : 	""
SampMemo(4) : 	""
SampMemo(5) : 	""
SampMemo(6) : 	""
SampMemo(7) : 	""
SampMemo(8) : 	""
SampMemo(9) : 	""
Temperature [K] :	     297.93409
Viscosity [cp]  :	       0.89458
Refractive Index:	       1.33200
Wavelength [nm] :	     632.80000
Angle [°]       :	     120.00000
Duration [s]    :	        10
FloatDur [ms]   :	         9961
Stop TP [ms]   :	  16777216
Runs            :	         1
Mode            :	"C-CH0/1+1/0"
MeanCR0 [kHz]   :	     285.00247
MeanCR1 [kHz]   :	     292.88353
MeanCR2 [kHz]   :	       0.00000
MeanCR3 [kHz]   :	       0.00000

"Correlation"
  2.50000E-005	  9.19089E-001	  9.12811E-001	  0.00000E+000	  0.00000E+000
  5.00000E-005	  9.13773E-001	  9.11031E-001	  0.00000E+000	  0.00000E+000
  7.50000E-005	  9.15240E-001	  9.17814E-001	  0.00000E+000	  0.00000E+000
  1.00000E-004	  9.13172E-001	  9.10935E-001	  0.00000E+000	  0.00000E+000
  1.25000E-004	  9.07543E-001	  9.00159E-001	  0.00000E+000	  0.00000E+000
  1.50000E-004	  9.11199E-001	  9.16948E-001	  0.00000E+000	  0.00000E+000
  1.75000E-004	  9.09780E-001	  9.05836E-001	  0.00000E+000	  0.00000E+000
  2.00000E-004	  9.10839E-001	  9.04826E-001	  0.00000E+000	  0.00000E+000
  2.25000E-004	  9.08578E-001	  9.11705E-001	  0.00000E+000	  0.00000E+000
  2.50000E-004	  9.16226E-001	  9.09203E-001	  0.00000E+000	  0.00000E+000
  2.75000E-004	  9.09588E-001	  9.17814E-001	  0.00000E+000	  0.00000E+000
  3.00000E-004	  9.18006E-001	  9.15745E-001	  0.00000E+000	  0.00000E+000
  3.25000E-004	  9.14663E-001	  9.16178E-001	  0.00000E+000	  0.00000E+000
  3.50000E-004	  9.10502E-001	  9.25511E-001	  0.00000E+000	  0.00000E+000
  3.75000E-004	  9.07784E-001	  9.14783E-001	  0.00000E+000	  0.00000E+000
  4.00000E-004	  9.10682E-001	  9.11247E-001	  0.00000E+000	  0.00000E+000
  4.50000E-004	  9.12174E-001	  9.16082E-001	  0.00000E+000	  0.00000E+000
  5.00000E-004	  9.09071E-001	  9.05739E-001	  0.00000E+000	  0.00000E+000
  5.50000E-004	  9.15360E-001	  9.17958E-001	  0.00000E+000	  0.00000E+000
  6.00000E-004	  9.04477E-001	  9.02444E-001	  0.00000E+000	  0.00000E+000
  6.50000E-004	  9.12847E-001	  9.13292E-001	  0.00000E+000	  0.00000E+000
  7.00000E-004	  9.15625E-001	  9.20484E-001	  0.00000E+000	  0.00000E+000
  7.50000E-004	  9.06293E-001	  9.07062E-001	  0.00000E+000	  0.00000E+000
  8.00000E-004	  9.05282E-001	  9.09131E-001	  0.00000E+000	  0.00000E+000
  9.00000E-004	  9.05144E-001	  9.05583E-001	  0.00000E+000	  0.00000E+000
  1.00000E-003	  9.05354E-001	  8.99907E-001	  0.00000E+000	  0.00000E+000
  1.10000E-003	  9.07092E-001	  9.05054E-001	  0.00000E+000	  0.00000E+000
  1.20000E-003	  9.06479E-001	  9.05619E-001	  0.00000E+000	  0.00000E+000
  1.30000E-003	  9.07255E-001	  9.08060E-001	  0.00000E+000	  0.00000E+000
  1.40000E-003	  9.03869E-001	  9.03767E-001	  0.00000E+000	  0.00000E+000
  1.50000E-003	  9.10093E-001	  9.05186E-001	  0.00000E+000	  0.00000E+000
  1.60000E-003	  9.09930E-001	  9.08740E-001	  0.00000E+000	  0.00000E+000
  1.80000E-003	  9.05829E-001	  9.06400E-001	  0.00000E+000	  0.00000E+000
  2.00000E-003	  9.07612E-001	  9.04350E-001	  0.00000E+000	  0.00000E+000
  2.20000E-003	  9.06806E-001	  9.07633E-001	  0.00000E+000	  0.00000E+000
  2.40000E-003	  9.06386E-001	  9.07453E-001	  0.00000E+000	  0.00000E+000
  2.60000E-003	  9.01801E-001	  8.98144E-001	  0.00000E+000	  0.00000E+000
  2.80000E-003	  9.03253E-001	  9.04993E-001	  0.00000E+000	  0.00000E+000
  3.00000E-003	  9.02147E-001	  9.01109E-001	  0.00000E+000	  0.00000E+000
  3.20000E-003	  9.04697E-001	  9.02569E-001	  0.00000E+000	  0.00000E+000
  3.60000E-003	  9.01104E-001	  9.01860E-001	  0.00000E+000	  0.00000E+000
  4.00000E-003	  8.99971E-001	  8.99434E-001	  0.00000E+000	  0.00000E+000
  4.40000E-003	  9.01845E-001	  9.00366E-001	  0.00000E+000	  0.00000E+000
  4.80000E-003	  9.02587E-001	  9.02281E-001	  0.00000E+000	  0.00000E+000
  5.20000E-003	  8.99421E-001	  8.98835E-001	  0.00000E+000	  0.00000E+000
  5.60000E-003	  9.00867E-001	  9.03093E-001	  0.00000E+000	  0.00000E+000
  6.00000E-003	  8.97603E-001	  8.98937E-001	  0.00000E+000	  0.00000E+000
  6.40000E-003	  8.96850E-001	  8.98061E-001	  0.00000E+000	  0.00000E+000
  7.20000E-003	  8.93469E-001	  8.94683E-001	  0.00000E+000	  0.00000E+000
  8.00000E-003	  8.93154E-001	  8.93366E-001	  0.00000E+000	  0.00000E+000
  8.80000E-003	  8.91649E-001	  8.91299E-001	  0.00000E+000	  0.00000E+000
  9.60000E-003	  8.90506E-001	  8.91505E-001	  0.00000E+000	  0.00000E+000
  1.04000E-002	  8.86006E-001	  8.85985E-001	  0.00000E+000	  0.00000E+000
  1.12000E-002	  8.86358E-001	  8.88279E-001	  0.00000E+000	  0.00000E+000
  1.20000E-002	  8.83678E-001	  8.84176E-001	  0.00000E+000	  0.00000E+000
  1.28000E-002	  8.82411E-001	  8.82428E-001	  0.00000E+000	  0.00000E+000
  1.44000E-002	  8.79489E-001	  8.79741E-001	  0.00000E+000	  0.00000E+000
  1.60000E-002	  8.73838E-001	  8.72287E-001	  0.00000E+000	  0.00000E+000
  1.76000E-002	  8.73786E-001	  8.73710E-001	  0.00000E+000	  0.00000E+000
  1.92000E-002	  8.69289E-001	  8.69902E-001	  0.00000E+000	  0.00000E+000
  2.08000E-002	  8.64376E-001	  8.63642E-001	  0.00000E+000	  0.00000E+000
  2.24000E-002	  8.61439E-001	  8.63127E-001	  0.00000E+000	  0.00000E+000
  2.40000E-002	  8.59764E-001	  8.59497E-001	  0.00000E+000	  0.00000E+000
  2.56000E-002	  8.55726E-001	  8.55807E-001	  0.00000E+000	  0.00000E+000
  2.88000E-002	  8.48387E-001	  8.48405E-001	  0.00000E+000	  0.00000E+000
  3.20000E-002	  8.42840E-001	  8.43844E-001	  0.00000E+000	  0.00000E+000
  3.52000E-002	  8.35600E-001	  8.35735E-001	  0.00000E+000	  0.00000E+000
  3.84000E-002	  8.29977E-001	  8.29338E-001	  0.00000E+000	  0.00000E+000
  4.16000E-002	  8.24323E-001	  8.24281E-001	  0.00000E+000	  0.00000E+000
  4.48000E-002	  8.17523E-001	  8.17139E-001	  0.00000E+000	  0.00000E+000
  4.80000E-002	  8.12691E-001	  8.13077E-001	  0.00000E+000	  0.00000E+000
  5.12000E-002	  8.05332E-001	  8.05446E-001	  0.00000E+000	  0.00000E+000
  5.76000E-002	  7.93558E-001	  7.93537E-001	  0.00000E+000	  0.00000E+000
  6.40000E-002	  7.82375E-001	  7.82688E-001	  0.00000E+000	  0.00000E+000
  7.04000E-002	  7.70668E-001	  7.70834E-001	  0.00000E+000	  0.00000E+000
  7.68000E-002	  7.60681E-001	  7.61509E-001	  0.00000E+000	  0.00000E+000
  8.32000E-002	  7.48897E-001	  7.48927E-001	  0.00000E+000	  0.00000E+000
  8.96000E-002	  7.38346E-001	  7.38554E-001	  0.00000E+000	  0.00000E+000
  9.60000E-002	  7.28004E-001	  7.27425E-001	  0.00000E+000	  0.00000E+000
  1.02400E-001	  7.17355E-001	  7.16799E-001	  0.00000E+000	  0.00000E+000
  1.15200E-001	  6.97179E-001	  6.97027E-001	  0.00000E+000	  0.00000E+000
  1.28000E-001	  6.77294E-001	  6.77769E-001	  0.00000E+000	  0.00000E+000
  1.40800E-001	  6.58113E-001	  6.58013E-001	  0.00000E+000	  0.00000E+000
  1.53600E-001	  6.39794E-001	  6.39570E-001	  0.00000E+000	  0.00000E+000
  1.66400E-001	  6.21732E-001	  6.21246E-001	  0.00000E+000	  0.00000E+000
  1.79200E-001	  6.05060E-001	  6.04996E-001	  0.00000E+000	  0.00000E+000
  1.92000E-001	  5.88450E-001	  5.88608E-001	  0.00000E+000	  0.00000E+000
  2.04800E-001	  5.72066E-001	  5.71983E-001	  0.00000E+000	  0.00000E+000
  2.30400E-001	  5.41074E-001	  5.40197E-001	  0.00000E+000	  0.00000E+000
  2.56000E-001	  5.12177E-001	  5.11733E-001	  0.00000E+000	  0.00000E+000
  2.81600E-001	  4.84128E-001	  4.83926E-001	  0.00000E+000	  0.00000E+000
  3.07200E-001	  4.58174E-001	  4.57751E-001	  0.00000E+000	  0.00000E+000
  3.32800E-001	  4.33390E-001	  4.32622E-001	  0.00000E+000	  0.00000E+000
  3.58400E-001	  4.09927E-001	  4.08996E-001	  0.00000E+000	  0.00000E+000
  3.84000E-001	  3.88075E-001	  3.87111E-001	  0.00000E+000	  0.00000E+000
  4.09600E-001	  3.67298E-001	  3.66328E-001	  0.00000E+000	  0.00000E+000
  4.60800E-001	  3.28540E-001	  3.27436E-001	  0.00000E+000	  0.00000E+000
  5.12000E-001	  2.94681E-001	  2.93215E-001	  0.00000E+000	  0.00000E+000
  5.63200E-001	  2.64700E-001	  2.63767E-001	  0.00000E+000	  0.00000E+000
  6.14400E-001	  2.37225E-001	  2.36478E-001	  0.00000E+000	  0.00000E+000
  6.65600E-001	  2.12085E-001	  2.11734E-001	  0.00000E+000	  0.00000E+000
  7.16800E-001	  1.89623E-001	  1.89240E-001	  0.00000E+000	  0.00000E+000
  7.68000E-001	  1.69910E-001	  1.69450E-001	  0.00000E+000	  0.00000E+000
  8.19200E-001	  1.53151E-001	  1.53043E-001	  0.00000E+000	  0.00000E+000
  9.21600E-001	  1.24965E-001	  1.24711E-001	  0.00000E+000	  0.00000E+000
  1.02400E+000	  1.02531E-001	  1.02113E-001	  0.00000E+000	  0.00000E+000
  1.12640E+000	  8.54807E-002	  8.51869E-002	  0.00000E+000	  0.00000E+000
  1.22880E+000	  7.17110E-002	  7.09963E-002	  0.00000E+000	  0.00000E+000
  1.33120E+000	  6.07044E-002	  6.01778E-002	  0.00000E+000	  0.00000E+000
  1.43360E+000	  5.10496E-002	  5.03830E-002	  0.00000E+000	  0.00000E+000
  1.53600E+000	  4.32135E-002	  4.24605E-002	  0.00000E+000	  0.00000E+000
  1.63840E+000	  3.61435E-002	  3.52684E-002	  0.00000E+000	  0.00000E+000
  1.84320E+000	  2.48735E-002	  2.43981E-002	  0.00000E+000	  0.00000E+000
  2.04800E+000	  1.66115E-002	  1.64889E-002	  0.00000E+000	  0.00000E+000
  2.25280E+000	  1.06112E-002	  1.06337E-002	  0.00000E+000	  0.00000E+000
  2.45760E+000	  7.42939E-003	  7.66387E-003	  0.00000E+000	  0.00000E+000
  2.66240E+000	  6.63568E-003	  6.47816E-003	  0.00000E+000	  0.00000E+000
  2.86720E+000	  8.07968E-003	  7.59296E-003	  0.00000E+000	  0.00000E+000
  3.07200E+000	  1.15041E-002	  1.14335E-002	  0.00000E+000	  0.00000E+000
  3.27680E+000	  1.32351E-002	  1.25761E-002	  0.00000E+000	  0.00000E+000
  3.68640E+000	  1.37323E-002	  1.32795E-002	  0.00000E+000	  0.00000E+000
  4.09600E+000	  6.56016E-003	  5.99919E-003	  0.00000E+000	  0.00000E+000
  4.50560E+000	  3.47889E-003	  3.53582E-003	  0.00000E+000	  0.00000E+000
  4.91520E+000	  7.35125E-003	  7.68041E-003	  0.00000E+000	  0.00000E+000
  5.32480E+000	  3.43765E-003	  3.76640E-003	  0.00000E+000	  0.00000E+000
  5.73440E+000	 -8.82887E-004	 -5.74949E-004	  0.00000E+000	  0.00000E+000
  6.14400E+000	 -3.85303E-003	 -3.46298E-003	  0.00000E+000	  0.00000E+000
  6.55360E+000	 -4.99993E-003	 -5.16045E-003	  0.00000E+000	  0.00000E+000
  7.37280E+000	 -2.58447E-003	 -3.13440E-003	  0.00000E+000	  0.00000E+000
  8.19200E+000	  3.88719E-003	  3.96402E-003	  0.00000E+000	  0.00000E+000
  9.01120E+000	 -5.24990E-003	 -4.76808E-003	  0.00000E+000	  0.00000E+000
  9.83040E+000	 -1.38429E-002	 -1.37688E-002	  0.00000E+000	  0.00000E+000
  1.06496E+001	 -1.15520E-002	 -1.10847E-002	  0.00000E+000	  0.00000E+000
  1.14688E+001	 -9.39328E-003	 -9.30391E-003	  0.00000E+000	  0.00000E+000
  1.22880E+001	 -8.43600E-003	 -8.24982E-003	  0.00000E+000	  0.00000E+000
  1.31072E+001	 -9.26812E-003	 -9.62080E-003	  0.00000E+000	  0.00000E+000
  1.47456E+001	 -8.00772E-004	 -1.31691E-003	  0.00000E+000	  0.00000E+000
  1.63840E+001	  2.54333E-003	  2.04424E-003	  0.00000E+000	  0.00000E+000
  1.80224E+001	  2.69648E-003	  2.28033E-003	  0.00000E+000	  0.00000E+000
  1.96608E+001	 -1.64648E-003	 -1.84070E-003	  0.00000E+000	  0.00000E+000
  2.12992E+001	  7.60349E-005	  2.25685E-005	  0.00000E+000	  0.00000E+000
  2.29376E+001	 -2.43433E-003	 -1.79059E-003	  0.00000E+000	  0.00000E+000
  2.45760E+001	 -4.24833E-003	 -3.80405E-003	  0.00000E+000	  0.00000E+000
  2.62144E+001	 -4.19938E-003	 -4.27966E-003	  0.00000E+000	  0.00000E+000
  2.94912E+001	 -4.33090E-003	 -4.54913E-003	  0.00000E+000	  0.00000E+000
  3.27680E+001	 -7.25461E-003	 -6.78890E-003	  0.00000E+000	  0.00000E+000
  3.60448E+001	  4.40815E-003	  4.81082E-003	  0.00000E+000	  0.00000E+000
  3.93216E+001	  5.82442E-003	  6.52290E-003	  0.00000E+000	  0.00000E+000
  4.25984E+001	 -1.60311E-003	 -1.45811E-003	  0.00000E+000	  0.00000E+000
  4.58752E+001	 -2.01948E-004	 -7.59265E-004	  0.00000E+000	  0.00000E+000
  4.91520E+001	 -4.85082E-003	 -4.99495E-003	  0.00000E+000	  0.00000E+000
  5.24288E+001	 -3.51249E-004	 -2.75432E-004	  0.00000E+000	  0.00000E+000
  5.89824E+001	  2.39737E-003	  2.40450E-003	  0.00000E+000	  0.00000E+000
  6.55360E+001	  2.35990E-005	  2.39024E-005	  0.00000E+000	  0.00000E+000
  7.20896E+001	  4.36515E-003	  4.00980E-003	  0.00000E+000	  0.00000E+000
  7.86432E+001	  5.03232E-003	  5.30079E-003	  0.00000E+000	  0.00000E+000
  8.51968E+001	 -6.07443E-003	 -6.04616E-003	  0.00000E+000	  0.00000E+000
  9.17504E+001	  7.38222E-004	  6.55815E-004	  0.00000E+000	  0.00000E+000
  9.83040E+001	  8.38492E-003	  8.73349E-003	  0.00000E+000	  0.00000E+000
  1.04858E+002	  1.95877E-003	  2.11683E-003	  0.00000E+000	  0.00000E+000
  1.17965E+002	  1.43500E-004	  2.14833E-004	  0.00000E+000	  0.00000E+000
  1.31072E+002	  4.74455E-003	  4.71000E-003	  0.00000E+000	  0.00000E+000
  1.44179E+002	  1.68511E-004	 -2.31263E-006	  0.00000E+000	  0.00000E+000
  1.57286E+002	 -2.87967E-003	 -2.77007E-003	  0.00000E+000	  0.00000E+000
  1.70394E+002	  6.09048E-003	  5.99791E-003	  0.00000E+000	  0.00000E+000
  1.83501E+002	  1.24330E-003	  1.69489E-003	  0.00000E+000	  0.00000E+000
  1.96608E+002	 -1.48868E-003	 -1.37627E-003	  0.00000E+000	  0.00000E+000
  2.09715E+002	 -2.56811E-003	 -2.59655E-003	  0.00000E+000	  0.00000E+000
  2.35930E+002	 -1.18257E-003	 -1.16340E-003	  0.00000E+000	  0.00000E+000
  2.62144E+002	 -2.55953E-003	 -2.49966E-003	  0.00000E+000	  0.00000E+000
  2.88358E+002	 -2.41251E-003	 -2.25879E-003	  0.00000E+000	  0.00000E+000
  3.14573E+002	  2.02909E-003	  2.00151E-003	  0.00000E+000	  0.00000E+000
  3.40787E+002	 -1.88951E-003	 -2.01666E-003	  0.00000E+000	  0.00000E+000
  3.67002E+002	 -1.00852E-003	 -9.97748E-004	  0.00000E+000	  0.00000E+000
  3.93216E+002	 -3.19964E-003	 -3.34101E-003	  0.00000E+000	  0.00000E+000
  4.19430E+002	 -1.03199E-003	 -9.97350E-004	  0.00000E+000	  0.00000E+000
  4.71859E+002	  7.32282E-004	  6.43510E-004	  0.00000E+000	  0.00000E+000
  5.24288E+002	 -3.94753E-004	 -5.31275E-004	  0.00000E+000	  0.00000E+000
  5.76717E+002	  2.74478E-005	  5.06041E-005	  0.00000E+000	  0.00000E+000
  6.29146E+002	  2.63403E-005	 -1.11422E-004	  0.00000E+000	  0.00000E+000
  6.81574E+002	  9.78198E-004	  9.75504E-004	  0.00000E+000	  0.00000E+000
  7.34003E+002	  5.07842E-005	  9.06408E-005	  0.00000E+000	  0.00000E+000
  7.86432E+002	  1.39666E-003	  1.51189E-003	  0.00000E+000	  0.00000E+000
  8.38861E+002	  2.10069E-003	  2.08739E-003	  0.00000E+000	  0.00000E+000
  9.43718E+002	  9.31840E-005	  8.13843E-005	  0.00000E+000	  0.00000E+000
  1.04858E+003	  4.87433E-004	  4.83921E-004	  0.00000E+000	  0.00000E+000
  1.15343E+003	 -6.93348E-005	 -1.20672E-004	  0.00000E+000	  0.00000E+000
  1.25829E+003	 -5.25239E-004	 -4.42714E-004	  0.00000E+000	  0.00000E+000
  1.36315E+003	  6.22548E-006	  1.52930E-004	  0.00000E+000	  0.00000E+000
  1.46801E+003	  4.86642E-005	  2.37724E-005	  0.00000E+000	  0.00000E+000
  1.57286E+003	  7.90423E-004	  7.26485E-004	  0.00000E+000	  0.00000E+000
  1.67772E+003	  1.02676E-003	  9.89194E-004	  0.00000E+000	  0.00000E+000
  1.88744E+003	 -8.71621E-005	 -6.03905E-005	  0.00000E+000	  0.00000E+000
  2.09715E+003	  8.37107E-004	  8.89703E-004	  0.00000E+000	  0.00000E+000
  2.30687E+003	 -7.78942E-005	 -1.33330E-004	  0.00000E+000	  0.00000E+000
  2.51658E+003	  1.08081E-004	  1.83099E-005	  0.00000E+000	  0.00000E+000
  2.72630E+003	  8.35001E-004	  8.46768E-004	  0.00000E+000	  0.00000E+000
  2.93601E+003	 -4.07058E-005	 -2.35268E-005	  0.00000E+000	  0.00000E+000
  3.14573E+003	 -3.11867E-004	 -3.53349E-004	  0.00000E+000	  0.00000E+000

"Count Rate"
       0.03906	     267.35315	     271.80139	     267.35315	     271.80139
       0.07813	     289.64539	     299.10422	     289.64539	     299.10422
       0.11719	     301.27719	     311.17065	     301.27719	     311.17065
       0.15625	     307.89841	     319.83701	     307.89841	     319.83701
       0.19531	     223.33116	     228.34180	     223.33116	     228.34180
       0.23438	     238.13298	     242.24886	     238.13298	     242.24886
       0.27344	     270.44647	     283.73999	     270.44647	     283.73999
       0.31250	     238.66983	     244.44740	     238.66983	     244.44740
       0.35156	     236.82919	     250.37836	     236.82919	     250.37836
       0.39063	     348.23914	     353.40314	     348.23914	     353.40314
       0.42969	     282.48734	     288.85287	     282.48734	     288.85287
       0.46875	     297.34027	     311.27292	     297.34027	     311.27292
       0.50781	     214.76706	     223.81688	     214.76706	     223.81688
       0.54688	     267.78775	     279.90530	     267.78775	     279.90530
       0.58594	     257.43414	     268.01785	     257.43414	     268.01785
       0.62500	     298.43954	     302.91333	     298.43954	     302.91333
       0.66406	     284.17459	     293.53116	     284.17459	     293.53116
       0.70313	     203.28862	     206.07515	     203.28862	     206.07515
       0.74219	     303.60358	     313.21582	     303.60358	     313.21582
       0.78125	     211.39255	     212.33844	     211.39255	     212.33844
       0.82031	     263.74857	     268.98929	     263.74857	     268.98929
       0.85938	     309.91800	     316.20685	     309.91800	     316.20685
       0.89844	     302.14639	     304.31937	     302.14639	     304.31937
       0.93750	     238.56758	     247.54071	     238.56758	     247.54071
       0.97656	     364.90717	     372.16745	     364.90717	     372.16745
       1.01563	     259.68384	     265.58920	     259.68384	     265.58920
       1.05469	     280.85120	     292.73868	     280.85120	     292.73868
       1.09375	     311.83533	     312.19324	     311.83533	     312.19324
       1.13281	     270.59985	     279.95645	     270.59985	     279.95645
       1.17188	     303.29678	     312.16766	     303.29678	     312.16766
       1.21094	     250.94078	     256.48825	     250.94078	     256.48825
       1.25000	     280.31433	     284.63474	     280.31433	     284.63474
       1.28906	     284.68588	     290.13110	     284.68588	     290.13110
       1.32813	     215.20166	     223.51010	     215.20166	     223.51010
       1.36719	     243.22031	     250.50618	     243.22031	     250.50618
       1.40625	     309.61121	     321.42200	     309.61121	     321.42200
       1.44531	     216.63327	     223.25446	     216.63327	     223.25446
       1.48438	     338.42236	     354.57910	     338.42236	     354.57910
       1.52344	     262.41922	     263.49292	     262.41922	     263.49292
       1.56250	     302.60657	     311.19623	     302.60657	     311.19623
       1.60156	     360.91910	     372.32086	     360.91910	     372.32086
       1.64063	     203.44200	     207.32780	     203.44200	     207.32780
       1.67969	     322.80249	     337.06744	     322.80249	     337.06744
       1.71875	     240.79169	     246.03239	     240.79169	     246.03239
       1.75781	     281.66925	     294.86053	     281.66925	     294.86053
       1.79688	     296.65002	     302.42761	     296.65002	     302.42761
       1.83594	     311.29846	     330.57410	     311.29846	     330.57410
       1.87500	     256.69278	     261.65228	     256.69278	     261.65228
       1.91406	     319.70920	     327.60861	     319.70920	     327.60861
       1.95313	     231.94638	     233.55695	     231.94638	     233.55695
       1.99219	     317.45950	     324.77094	     317.45950	     324.77094
       2.03125	     314.21283	     324.84766	     314.21283	     324.84766
       2.07031	     309.38113	     318.27759	     309.38113	     318.27759
       2.10938	     235.42314	     243.55264	     235.42314	     243.55264
       2.14844	     251.17085	     254.67319	     251.17085	     254.67319
       2.18750	     232.25316	     240.94507	     232.25316	     240.94507
       2.22656	     240.45935	     250.76183	     240.45935	     250.76183
       2.26563	     302.29977	     312.11655	     302.29977	     312.11655
       2.30469	     269.44946	     275.38040	     269.44946	     275.38040
       2.34375	     296.77786	     306.31342	     296.77786	     306.31342
       2.38281	     301.78848	     311.42630	     301.78848	     311.42630
       2.42188	     247.56627	     253.88069	     247.56627	     253.88069
       2.46094	     220.87697	     226.50114	     220.87697	     226.50114
       2.50000	     285.04376	     291.33264	     285.04376	     291.33264
       2.53906	     311.22177	     318.63547	     311.22177	     318.63547
       2.57813	     260.39963	     264.95010	     260.39963	     264.95010
       2.61719	     282.76852	     289.49197	     282.76852	     289.49197
       2.65625	     288.98071	     293.48004	     288.98071	     293.48004
       2.69531	     310.55710	     314.85193	     310.55710	     314.85193
       2.73438	     341.41342	     356.44531	     341.41342	     356.44531
       2.77344	     276.83759	     287.98367	     276.83759	     287.98367
       2.81250	     324.00403	     340.36526	     324.00403	     340.36526
       2.85156	     291.61383	     294.22141	     291.61383	     294.22141
       2.89063	     326.61160	     336.76068	     326.61160	     336.76068
       2.92969	     261.24326	     265.25687	     261.24326	     265.25687
       2.96875	     238.72096	     245.93015	     238.72096	     245.93015
       3.00781	     248.87006	     249.30466	     248.87006	     249.30466
       3.04688	     197.17871	     202.36830	     197.17871	     202.36830
       3.08594	     222.48753	     228.00945	     222.48753	     228.00945
       3.12500	     215.12497	     211.85271	     215.12497	     211.85271
       3.16406	     243.42482	     247.56627	     243.42482	     247.56627
       3.20313	     298.72076	     302.35092	     298.72076	     302.35092
       3.24219	     249.76482	     251.01747	     249.76482	     251.01747
       3.28125	     283.58661	     302.14639	     283.58661	     302.14639
       3.32031	     335.53360	     348.34137	     335.53360	     348.34137
       3.35938	     260.96204	     269.57727	     260.96204	     269.57727
       3.39844	     288.52054	     295.29514	     288.52054	     295.29514
       3.43750	     263.39066	     273.13074	     263.39066	     273.13074
       3.47656	     337.70657	     340.95325	     337.70657	     340.95325
       3.51563	     258.58456	     267.25092	     258.58456	     267.25092
       3.55469	     247.08054	     252.93480	     247.08054	     252.93480
       3.59375	     313.11356	     323.72281	     313.11356	     323.72281
       3.63281	     282.51288	     291.61383	     282.51288	     291.61383
       3.67188	     267.40430	     275.66162	     267.40430	     275.66162
       3.71094	     296.72675	     314.72412	     296.72675	     314.72412
       3.75000	     250.17384	     258.58456	     250.17384	     258.58456
       3.78906	     373.95697	     385.97226	     373.95697	     385.97226
       3.82813	     299.94785	     309.30444	     299.94785	     309.30444
       3.86719	     285.42725	     296.95682	     285.42725	     296.95682
       3.90625	     272.59387	     285.58063	     272.59387	     285.58063
       3.94531	     298.89972	     310.91501	     298.89972	     310.91501
       3.98438	     236.82919	     242.04434	     236.82919	     242.04434
       4.02344	     312.65338	     314.18726	     312.65338	     314.18726
       4.06250	     267.02081	     277.65564	     267.02081	     277.65564
       4.10156	     296.67560	     313.24136	     296.67560	     313.24136
       4.14063	     206.94434	     209.24513	     206.94434	     209.24513
       4.17969	     349.84970	     356.87991	     349.84970	     356.87991
       4.21875	     268.35019	     278.67822	     268.35019	     278.67822
       4.25781	     284.40466	     293.83795	     284.40466	     293.83795
       4.29688	     247.56627	     253.08820	     247.56627	     253.08820
       4.33594	     290.84689	     297.39142	     290.84689	     297.39142
       4.37500	     323.79950	     330.29288	     323.79950	     330.29288
       4.41406	     309.63678	     314.74966	     309.63678	     314.74966
       4.45313	     372.19302	     378.89093	     372.19302	     378.89093
       4.49219	     191.78461	     195.51701	     191.78461	     195.51701
       4.53125	     236.03670	     243.22031	     236.03670	     243.22031
       4.57031	     237.62169	     240.53604	     237.62169	     240.53604
       4.60938	     333.07941	     341.46454	     333.07941	     341.46454
       4.64844	     249.20239	     258.53342	     249.20239	     258.53342
       4.68750	     224.58382	     228.80196	     224.58382	     228.80196
       4.72656	     287.11450	     302.68326	     287.11450	     302.68326
       4.76563	     293.07101	     294.29810	     293.07101	     294.29810
       4.80469	     380.24585	     394.17847	     380.24585	     394.17847
       4.84375	     222.94769	     223.45898	     222.94769	     223.45898
       4.88281	     349.90082	     350.69333	     349.90082	     350.69333
       4.92188	     271.54575	     284.81369	     271.54575	     284.81369
       4.96094	     256.64166	     266.86743	     256.64166	     266.86743
       5.00000	     286.93555	     289.38974	     286.93555	     289.38974
       5.03906	     313.85492	     323.82507	     313.85492	     323.82507
       5.07813	     228.82751	     233.91484	     228.82751	     233.91484
       5.11719	     268.50357	     272.05704	     268.50357	     272.05704
       5.15625	     233.17348	     243.42482	     233.17348	     243.42482
       5.19531	     292.58530	     305.52090	     292.58530	     305.52090
       5.23438	     287.29346	     294.06802	     287.29346	     294.06802
       5.27344	     283.79111	     290.41232	     283.79111	     290.41232
       5.31250	     298.64407	     309.33002	     298.64407	     309.33002
       5.35156	     312.83234	     320.19492	     312.83234	     320.19492
       5.39063	     168.00966	     171.20522	     168.00966	     171.20522
       5.42969	     317.71515	     324.61755	     317.71515	     324.61755
       5.46875	     348.62259	     356.90549	     348.62259	     356.90549
       5.50781	     282.41064	     290.61682	     282.41064	     290.61682
       5.54688	     280.18652	     292.48303	     280.18652	     292.48303
       5.58594	     325.69128	     346.09171	     325.69128	     346.09171
       5.62500	     308.38412	     319.58136	     308.38412	     319.58136
       5.66406	     318.14975	     322.31677	     318.14975	     322.31677
       5.70313	     304.16599	     312.19324	     304.16599	     312.19324
       5.74219	     270.49759	     280.08426	     270.49759	     280.08426
       5.78125	     300.40802	     315.51660	     300.40802	     315.51660
       5.82031	     299.35986	     304.34494	     299.35986	     304.34494
       5.85938	     236.34348	     244.65192	     236.34348	     244.65192
       5.89844	     338.32010	     340.69760	     338.32010	     340.69760
       5.93750	     313.65042	     328.78458	     313.65042	     328.78458
       5.97656	     248.61441	     247.13167	     248.61441	     247.13167
       6.01563	     275.15033	     282.38507	     275.15033	     282.38507
       6.05469	     273.76984	     281.36249	     273.76984	     281.36249
       6.09375	     231.43509	     238.36307	     231.43509	     238.36307
       6.13281	     308.66534	     314.11057	     308.66534	     314.11057
       6.17188	     266.71405	     276.22403	     266.71405	     276.22403
       6.21094	     311.50299	     324.23410	     311.50299	     324.23410
       6.25000	     317.58734	     323.21152	     317.58734	     323.21152
       6.28906	     336.93964	     349.31284	     336.93964	     349.31284
       6.32813	     365.21393	     378.78867	     365.21393	     378.78867
       6.36719	     305.64874	     309.40671	     305.64874	     309.40671
       6.40625	     380.70599	     386.12567	     380.70599	     386.12567
       6.44531	     310.78720	     321.29419	     310.78720	     321.29419
       6.48438	     261.37106	     269.65396	     261.37106	     269.65396
       6.52344	     306.26227	     314.16168	     306.26227	     314.16168
       6.56250	     230.71928	     233.58250	     230.71928	     233.58250
       6.60156	     272.54276	     275.45709	     272.54276	     275.45709
       6.64063	     296.39438	     304.85623	     296.39438	     304.85623
       6.67969	     280.31433	     282.51288	     280.31433	     282.51288
       6.71875	     308.58865	     308.46082	     308.58865	     308.46082
       6.75781	     343.35632	     343.79092	     343.35632	     343.79092
       6.79688	     273.07959	     282.87079	     273.07959	     282.87079
       6.83594	     258.81464	     266.73962	     258.81464	     266.73962
       6.87500	     279.93088	     286.14304	     279.93088	     286.14304
       6.91406	     362.68304	     372.70432	     362.68304	     372.70432
       6.95313	     287.54910	     294.93723	     287.54910	     294.93723
       6.99219	     268.50357	     278.06467	     268.50357	     278.06467
       7.03125	     297.39142	     305.06076	     297.39142	     305.06076
       7.07031	     341.69461	     359.23184	     341.69461	     359.23184
       7.10938	     317.20386	     330.93198	     317.20386	     330.93198
       7.14844	     271.13669	     280.87677	     271.13669	     280.87677
       7.18750	     330.11392	     338.83139	     330.11392	     338.83139
       7.22656	     276.22403	     280.74893	     276.22403	     280.74893
       7.26563	     245.08652	     252.78142	     245.08652	     252.78142
       7.30469	     301.99301	     310.35260	     301.99301	     310.35260
       7.34375	     238.05629	     243.80829	     238.05629	     243.80829
       7.38281	     276.68420	     285.45279	     276.68420	     285.45279
       7.42188	     241.45636	     253.98294	     241.45636	     253.98294
       7.46094	     272.79840	     275.40598	     272.79840	     275.40598
       7.50000	     257.56198	     260.88535	     257.56198	     260.88535
       7.53906	     290.00327	     295.01392	     290.00327	     295.01392
       7.57813	     344.22549	     354.09338	     344.22549	     354.09338
       7.61719	     246.79933	     257.17850	     246.79933	     257.17850
       7.65625	     313.01129	     324.84766	     313.01129	     324.84766
       7.69531	     215.96860	     223.71463	     215.96860	     223.71463
       7.73438	     348.54590	     360.43338	     348.54590	     360.43338
       7.77344	     277.11877	     284.55804	     277.11877	     284.55804
       7.81250	     290.02884	     289.84988	     290.02884	     289.84988
       7.85156	     274.89468	     288.18820	     274.89468	     288.18820
       7.89063	     325.53787	     330.01166	     325.53787	     330.01166
       7.92969	     373.95697	     385.74219	     373.95697	     385.74219
       7.96875	     275.76389	     280.33990	     275.76389	     280.33990
       8.00781	     367.31021	     378.63528	     367.31021	     378.63528
       8.04688	     312.39774	     318.81442	     312.39774	     318.81442
       8.08594	     437.28015	     446.96909	     437.28015	     446.96909
       8.12500	     325.48676	     338.09003	     325.48676	     338.09003
       8.16406	     261.42221	     273.43750	     261.42221	     273.43750
       8.20313	     268.47800	     279.82861	     268.47800	     279.82861
       8.24219	     232.55992	     238.69540	     232.55992	     238.69540
       8.28125	     313.90604	     317.86853	     313.90604	     317.86853
       8.32031	     262.21469	     279.21509	     262.21469	     279.21509
       8.35938	     265.02679	     267.12308	     265.02679	     267.12308
       8.39844	     237.11040	     241.94209	     237.11040	     241.94209
       8.43750	     226.42445	     229.82452	     226.42445	     229.82452
       8.47656	     247.00385	     250.91521	     247.00385	     250.91521
       8.51563	     265.43582	     266.40729	     265.43582	     266.40729
       8.55469	     288.85287	     297.11020	     288.85287	     297.11020
       8.59375	     335.38019	     346.98648	     335.38019	     346.98648
       8.63281	     240.74055	     244.95869	     240.74055	     244.95869
       8.67188	     311.88644	     320.78290	     311.88644	     320.78290
       8.71094	     257.91986	     266.84189	     257.91986	     266.84189
       8.75000	     315.79782	     328.42667	     315.79782	     328.42667
       8.78906	     314.36621	     323.97845	     314.36621	     323.97845
       8.82813	     217.42577	     220.90253	     217.42577	     220.90253
       8.86719	     315.41437	     329.34698	     315.41437	     329.34698
       8.90625	     303.45020	     312.16766	     303.45020	     312.16766
       8.94531	     282.87079	     287.49796	     282.87079	     287.49796
       8.98438	     273.05405	     287.11450	     273.05405	     287.11450
       9.02344	     263.46738	     273.07959	     263.46738	     273.07959
       9.06250	     258.78906	     266.48398	     258.78906	     266.48398
       9.10156	     303.37350	     318.37982	     303.37350	     318.37982
       9.14063	     245.72563	     254.87770	     245.72563	     254.87770
       9.17969	     256.30933	     254.59650	     256.30933	     254.59650
       9.21875	     314.92862	     317.48508	     314.92862	     317.48508
       9.25781	     331.00867	     336.73511	     331.00867	     336.73511
       9.29688	     301.63510	     312.83234	     301.63510	     312.83234
       9.33594	     246.97829	     252.14230	     246.97829	     252.14230
       9.37500	     246.28804	     249.68813	     246.28804	     249.68813
       9.41406	     326.84167	     339.21487	     326.84167	     339.21487
       9.45313	     287.95813	     295.60190	     287.95813	     295.60190
       9.49219	     265.74261	     274.58789	     265.74261	     274.58789
       9.53125	     261.01318	     268.09454	     261.01318	     268.09454
       9.57031	     373.44568	     382.44437	     373.44568	     382.44437
       9.60938	     248.58885	     253.34384	     248.58885	     253.34384
       9.64844	     302.29977	     308.28186	     302.29977	     308.28186
       9.68750	     274.33228	     280.95346	     274.33228	     280.95346
       9.72656	     253.65060	     265.53809	     253.65060	     265.53809
       9.76563	     317.51065	     331.59665	     317.51065	     331.59665
       9.80469	     301.09827	     305.13745	     301.09827	     305.13745
       9.84375	     260.80865	     269.37274	     260.80865	     269.37274
       9.88281	     300.81705	     307.61719	     300.81705	     307.61719

Monitor Diode	 256615.10

"Cumulant 1.Order"
FluctuationFreq. [1/ms]	 1.0999E+000
DiffCoefficient [µm²/s]	 2.0959E+000
Hydrodyn. Radius [nm]	 1.1633E+002

"Cumulant 2.Order"
FluctuationFreq. [1/ms]	 1.1488E+000
DiffCoefficient [µm²/s]	 2.1893E+000
Hydrodyn. Radius [nm]	 1.1137E+002
Expansion Parameter µ2	 1.6402E-001

"Cumulant 3.Order"
FluctuationFreq. [1/ms]	 1.1703E+000
DiffCoefficient [µm²/s]	 2.2301E+000
Hydrodyn. Radius [nm]	 1.0933E+002
Expansion Parameter µ2	 3.4753E-001
Expansion Parameter µ3	 4.7906E-001

"StandardDeviation"
  2.50000E-005	  1.52761E-002
  5.00000E-005	  1.52767E-002
  7.50000E-005	  1.52769E-002
  1.00000E-004	  1.52776E-002
  1.25000E-004	  1.52779E-002
  1.50000E-004	  1.52782E-002
  1.75000E-004	  1.52785E-002
  2.00000E-004	  1.52791E-002
  2.25000E-004	  1.52739E-002
  2.50000E-004	  1.52777E-002
  2.75000E-004	  1.52682E-002
  3.00000E-004	  1.52771E-002
  3.25000E-004	  1.52723E-002
  3.50000E-004	  1.52663E-002
  3.75000E-004	  1.52618E-002
  4.00000E-004	  1.37522E-002
  4.50000E-004	  1.37535E-002
  5.00000E-004	  1.37512E-002
  5.50000E-004	  1.37560E-002
  6.00000E-004	  1.37480E-002
  6.50000E-004	  1.37540E-002
  7.00000E-004	  1.37560E-002
  7.50000E-004	  1.37494E-002
  8.00000E-004	  1.29278E-002
  9.00000E-004	  1.29272E-002
  1.00000E-003	  1.29273E-002
  1.10000E-003	  1.29278E-002
  1.20000E-003	  1.29276E-002
  1.30000E-003	  1.29276E-002
  1.40000E-003	  1.29267E-002
  1.50000E-003	  1.29285E-002
  1.60000E-003	  1.24967E-002
  1.80000E-003	  1.24953E-002
  2.00000E-003	  1.24955E-002
  2.20000E-003	  1.24954E-002
  2.40000E-003	  1.24956E-002
  2.60000E-003	  1.24950E-002
  2.80000E-003	  1.24952E-002
  3.00000E-003	  1.24949E-002
  3.20000E-003	  1.22733E-002
  3.60000E-003	  1.22714E-002
  4.00000E-003	  1.22714E-002
  4.40000E-003	  1.22712E-002
  4.80000E-003	  1.22709E-002
  5.20000E-003	  1.22711E-002
  5.60000E-003	  1.22708E-002
  6.00000E-003	  1.22709E-002
  6.40000E-003	  1.21583E-002
  7.20000E-003	  1.21549E-002
  8.00000E-003	  1.21544E-002
  8.80000E-003	  1.21544E-002
  9.60000E-003	  1.21541E-002
  1.04000E-002	  1.21542E-002
  1.12000E-002	  1.21534E-002
  1.20000E-002	  1.21536E-002
  1.28000E-002	  1.20949E-002
  1.44000E-002	  1.20878E-002
  1.60000E-002	  1.20881E-002
  1.76000E-002	  1.20865E-002
  1.92000E-002	  1.20865E-002
  2.08000E-002	  1.20867E-002
  2.24000E-002	  1.20856E-002
  2.40000E-002	  1.20841E-002
  2.56000E-002	  1.20522E-002
  2.88000E-002	  1.20385E-002
  3.20000E-002	  1.20374E-002
  3.52000E-002	  1.20360E-002
  3.84000E-002	  1.20337E-002
  4.16000E-002	  1.20318E-002
  4.48000E-002	  1.20297E-002
  4.80000E-002	  1.20260E-002
  5.12000E-002	  1.20000E-002
  5.76000E-002	  1.19749E-002
  6.40000E-002	  1.19684E-002
  7.04000E-002	  1.19621E-002
  7.68000E-002	  1.19540E-002
  8.32000E-002	  1.19463E-002
  8.96000E-002	  1.19379E-002
  9.60000E-002	  1.19272E-002
  1.02400E-001	  1.19054E-002
  1.15200E-001	  1.18405E-002
  1.28000E-001	  1.18148E-002
  1.40800E-001	  1.17882E-002
  1.53600E-001	  1.17542E-002
  1.66400E-001	  1.17228E-002
  1.79200E-001	  1.16833E-002
  1.92000E-001	  1.16478E-002
  2.04800E-001	  1.15735E-002
  2.30400E-001	  1.14539E-002
  2.56000E-001	  1.13648E-002
  2.81600E-001	  1.12691E-002
  3.07200E-001	  1.11753E-002
  3.32800E-001	  1.10724E-002
  3.58400E-001	  1.09646E-002
  3.84000E-001	  1.08565E-002
  4.09600E-001	  1.07445E-002
  4.60800E-001	  1.04676E-002
  5.12000E-001	  1.02578E-002
  5.63200E-001	  1.00438E-002
  6.14400E-001	  9.83273E-003
  6.65600E-001	  9.63867E-003
  7.16800E-001	  9.43176E-003
  7.68000E-001	  9.22746E-003
  8.19200E-001	  9.01942E-003
  9.21600E-001	  8.63036E-003
  1.02400E+000	  8.30808E-003
  1.12640E+000	  8.03392E-003
  1.22880E+000	  7.80137E-003
  1.33120E+000	  7.60109E-003
  1.43360E+000	  7.44355E-003
  1.53600E+000	  7.31421E-003
  1.63840E+000	  7.05426E-003
  1.84320E+000	  6.81901E-003
  2.04800E+000	  6.60153E-003
  2.25280E+000	  6.43146E-003
  2.45760E+000	  6.33310E-003
  2.66240E+000	  6.27746E-003
  2.86720E+000	  5.98294E-003
  3.07200E+000	  5.98294E-003
  3.27680E+000	  5.92452E-003
  3.68640E+000	  5.92452E-003
  4.09600E+000	  5.92452E-003
  4.50560E+000	  5.92452E-003
  4.91520E+000	  5.92452E-003
  5.32480E+000	  5.92452E-003
  5.73440E+000	  5.92452E-003
  6.14400E+000	  5.92452E-003
  6.55360E+000	  5.54149E-003
  7.37280E+000	  5.54149E-003
  8.19200E+000	  5.54149E-003
  9.01120E+000	  5.54149E-003
  9.83040E+000	  5.54149E-003
  1.06496E+001	  5.54149E-003
  1.14688E+001	  5.54149E-003
  1.22880E+001	  5.54149E-003
  1.31072E+001	  4.89063E-003
  1.47456E+001	  4.89063E-003
  1.63840E+001	  4.89063E-003
  1.80224E+001	  4.89063E-003
  1.96608E+001	  4.89063E-003
  2.12992E+001	  4.89063E-003
  2.29376E+001	  4.89063E-003
  2.45760E+001	  4.89063E-003
  2.62144E+001	  4.03673E-003
  2.94912E+001	  4.03673E-003
  3.27680E+001	  4.03673E-003
  3.60448E+001	  4.03673E-003
  3.93216E+001	  4.03673E-003
  4.25984E+001	  4.03673E-003
  4.58752E+001	  4.03673E-003
  4.91520E+001	  4.03673E-003
  5.24288E+001	  3.17123E-003
  5.89824E+001	  3.17123E-003
  6.55360E+001	  3.17123E-003
  7.20896E+001	  3.17123E-003
  7.86432E+001	  3.17123E-003
  8.51968E+001	  3.17123E-003
  9.17504E+001	  3.17123E-003
  9.83040E+001	  3.17123E-003
  1.04858E+002	  2.36323E-003
  1.17965E+002	  2.36323E-003
  1.31072E+002	  2.36323E-003
  1.44179E+002	  2.36323E-003
  1.57286E+002	  2.36323E-003
  1.70394E+002	  2.36323E-003
  1.83501E+002	  2.36323E-003
  1.96608E+002	  2.36323E-003
  2.09715E+002	  1.71506E-003
  2.35930E+002	  1.71506E-003
  2.62144E+002	  1.71506E-003
  2.88358E+002	  1.71506E-003
  3.14573E+002	  1.71506E-003
  3.40787E+002	  1.71506E-003
  3.67002E+002	  1.71506E-003
  3.93216E+002	  1.71506E-003
  4.19430E+002	  1.22829E-003
  4.71859E+002	  1.22829E-003
  5.24288E+002	  1.22829E-003
  5.76717E+002	  1.22829E-003
  6.29146E+002	  1.22829E-003
  6.81574E+002	  1.22829E-003
  7.34003E+002	  1.22829E-003
  7.86432E+002	  1.22829E-003
  8.38861E+002	  8.74034E-004
  9.43718E+002	  8.74034E-004
  1.04858E+003	  8.74034E-004
  1.15343E+003	  8.74034E-004
  1.25829E+003	  8.74034E-004
  1.36315E+003	  8.74034E-004
  1.46801E+003	  8.74034E-004
  1.57286E+003	  8.74034E-004
  1.67772E+003	  6.19980E-004
  1.88744E+003	  6.19980E-004
  2.09715E+003	  6.19980E-004
  2.30687E+003	  6.19980E-004
  2.51658E+003	  6.19980E-004
  2.72630E+003	  6.19980E-004
  2.93601E+003	  6.19980E-004
  3.14573E+003	  6.19980E-004
