ALV-7004/USB
Date :	"08.06.2022"
Time :	"14:36:52"
Samplename : 	"Samplename needed."
SampMemo(0) : 	""
SampMemo(1) : 	""
SampMemo(2) : 	""
SampMemo(3) : 	""
SampMemo(4) : 	""
SampMemo(5) : 	""
SampMemo(6) : 	""
SampMemo(7) : 	""
SampMemo(8) : 	""
SampMemo(9) : 	""
Temperature [K] :	     297.93262
Viscosity [cp]  :	       0.89469
Refractive Index:	       1.33200
Wavelength [nm] :	     632.80000
Angle [°]       :	     120.00000
Duration [s]    :	        10
FloatDur [ms]   :	         9961
Stop TP [ms]   :	  16777216
Runs            :	         1
Mode            :	"C-CH0/1+1/0"
MeanCR0 [kHz]   :	     286.93359
MeanCR1 [kHz]   :	     294.09347
MeanCR2 [kHz]   :	       0.00000
MeanCR3 [kHz]   :	       0.00000

"Correlation"
  2.50000E-005	  2.72244E+000	  2.71850E+000	  0.00000E+000	  0.00000E+000
  5.00000E-005	  2.71064E+000	  2.72564E+000	  0.00000E+000	  0.00000E+000
  7.50000E-005	  2.71193E+000	  2.69134E+000	  0.00000E+000	  0.00000E+000
  1.00000E-004	  2.71931E+000	  2.71020E+000	  0.00000E+000	  0.00000E+000
  1.25000E-004	  2.71300E+000	  2.70445E+000	  0.00000E+000	  0.00000E+000
  1.50000E-004	  2.68808E+000	  2.69576E+000	  0.00000E+000	  0.00000E+000
  1.75000E-004	  2.70694E+000	  2.70795E+000	  0.00000E+000	  0.00000E+000
  2.00000E-004	  2.71509E+000	  2.70045E+000	  0.00000E+000	  0.00000E+000
  2.25000E-004	  2.68799E+000	  2.70516E+000	  0.00000E+000	  0.00000E+000
  2.50000E-004	  2.72434E+000	  2.72703E+000	  0.00000E+000	  0.00000E+000
  2.75000E-004	  2.70591E+000	  2.72695E+000	  0.00000E+000	  0.00000E+000
  3.00000E-004	  2.72542E+000	  2.72329E+000	  0.00000E+000	  0.00000E+000
  3.25000E-004	  2.72012E+000	  2.73374E+000	  0.00000E+000	  0.00000E+000
  3.50000E-004	  2.69651E+000	  2.72321E+000	  0.00000E+000	  0.00000E+000
  3.75000E-004	  2.69365E+000	  2.69362E+000	  0.00000E+000	  0.00000E+000
  4.00000E-004	  2.71719E+000	  2.71458E+000	  0.00000E+000	  0.00000E+000
  4.50000E-004	  2.70773E+000	  2.72122E+000	  0.00000E+000	  0.00000E+000
  5.00000E-004	  2.70943E+000	  2.70354E+000	  0.00000E+000	  0.00000E+000
  5.50000E-004	  2.71998E+000	  2.71528E+000	  0.00000E+000	  0.00000E+000
  6.00000E-004	  2.70335E+000	  2.69274E+000	  0.00000E+000	  0.00000E+000
  6.50000E-004	  2.71334E+000	  2.70765E+000	  0.00000E+000	  0.00000E+000
  7.00000E-004	  2.70568E+000	  2.71495E+000	  0.00000E+000	  0.00000E+000
  7.50000E-004	  2.70593E+000	  2.71140E+000	  0.00000E+000	  0.00000E+000
  8.00000E-004	  2.70658E+000	  2.71116E+000	  0.00000E+000	  0.00000E+000
  9.00000E-004	  2.70303E+000	  2.70594E+000	  0.00000E+000	  0.00000E+000
  1.00000E-003	  2.70353E+000	  2.70429E+000	  0.00000E+000	  0.00000E+000
  1.10000E-003	  2.70486E+000	  2.70800E+000	  0.00000E+000	  0.00000E+000
  1.20000E-003	  2.70083E+000	  2.70473E+000	  0.00000E+000	  0.00000E+000
  1.30000E-003	  2.70209E+000	  2.70358E+000	  0.00000E+000	  0.00000E+000
  1.40000E-003	  2.69517E+000	  2.69386E+000	  0.00000E+000	  0.00000E+000
  1.50000E-003	  2.71221E+000	  2.70730E+000	  0.00000E+000	  0.00000E+000
  1.60000E-003	  2.70721E+000	  2.70334E+000	  0.00000E+000	  0.00000E+000
  1.80000E-003	  2.69480E+000	  2.69514E+000	  0.00000E+000	  0.00000E+000
  2.00000E-003	  2.70068E+000	  2.70189E+000	  0.00000E+000	  0.00000E+000
  2.20000E-003	  2.69389E+000	  2.69854E+000	  0.00000E+000	  0.00000E+000
  2.40000E-003	  2.70124E+000	  2.70046E+000	  0.00000E+000	  0.00000E+000
  2.60000E-003	  2.68664E+000	  2.68508E+000	  0.00000E+000	  0.00000E+000
  2.80000E-003	  2.69432E+000	  2.69589E+000	  0.00000E+000	  0.00000E+000
  3.00000E-003	  2.69147E+000	  2.69451E+000	  0.00000E+000	  0.00000E+000
  3.20000E-003	  2.69066E+000	  2.68859E+000	  0.00000E+000	  0.00000E+000
  3.60000E-003	  2.68645E+000	  2.68403E+000	  0.00000E+000	  0.00000E+000
  4.00000E-003	  2.67985E+000	  2.68368E+000	  0.00000E+000	  0.00000E+000
  4.40000E-003	  2.68221E+000	  2.68185E+000	  0.00000E+000	  0.00000E+000
  4.80000E-003	  2.68344E+000	  2.68124E+000	  0.00000E+000	  0.00000E+000
  5.20000E-003	  2.67391E+000	  2.67239E+000	  0.00000E+000	  0.00000E+000
  5.60000E-003	  2.67817E+000	  2.67849E+000	  0.00000E+000	  0.00000E+000
  6.00000E-003	  2.66986E+000	  2.67052E+000	  0.00000E+000	  0.00000E+000
  6.40000E-003	  2.66756E+000	  2.66760E+000	  0.00000E+000	  0.00000E+000
  7.20000E-003	  2.66333E+000	  2.66662E+000	  0.00000E+000	  0.00000E+000
  8.00000E-003	  2.65719E+000	  2.66226E+000	  0.00000E+000	  0.00000E+000
  8.80000E-003	  2.65460E+000	  2.65364E+000	  0.00000E+000	  0.00000E+000
  9.60000E-003	  2.64677E+000	  2.64705E+000	  0.00000E+000	  0.00000E+000
  1.04000E-002	  2.64359E+000	  2.64242E+000	  0.00000E+000	  0.00000E+000
  1.12000E-002	  2.63602E+000	  2.63843E+000	  0.00000E+000	  0.00000E+000
  1.20000E-002	  2.63383E+000	  2.63460E+000	  0.00000E+000	  0.00000E+000
  1.28000E-002	  2.62799E+000	  2.62738E+000	  0.00000E+000	  0.00000E+000
  1.44000E-002	  2.61817E+000	  2.61857E+000	  0.00000E+000	  0.00000E+000
  1.60000E-002	  2.60659E+000	  2.60563E+000	  0.00000E+000	  0.00000E+000
  1.76000E-002	  2.59832E+000	  2.59965E+000	  0.00000E+000	  0.00000E+000
  1.92000E-002	  2.58679E+000	  2.58781E+000	  0.00000E+000	  0.00000E+000
  2.08000E-002	  2.57501E+000	  2.57455E+000	  0.00000E+000	  0.00000E+000
  2.24000E-002	  2.56578E+000	  2.56620E+000	  0.00000E+000	  0.00000E+000
  2.40000E-002	  2.55825E+000	  2.55709E+000	  0.00000E+000	  0.00000E+000
  2.56000E-002	  2.54647E+000	  2.54621E+000	  0.00000E+000	  0.00000E+000
  2.88000E-002	  2.52734E+000	  2.52692E+000	  0.00000E+000	  0.00000E+000
  3.20000E-002	  2.50928E+000	  2.50942E+000	  0.00000E+000	  0.00000E+000
  3.52000E-002	  2.48838E+000	  2.48662E+000	  0.00000E+000	  0.00000E+000
  3.84000E-002	  2.47129E+000	  2.47010E+000	  0.00000E+000	  0.00000E+000
  4.16000E-002	  2.45373E+000	  2.45372E+000	  0.00000E+000	  0.00000E+000
  4.48000E-002	  2.43389E+000	  2.43359E+000	  0.00000E+000	  0.00000E+000
  4.80000E-002	  2.41724E+000	  2.41842E+000	  0.00000E+000	  0.00000E+000
  5.12000E-002	  2.39761E+000	  2.39828E+000	  0.00000E+000	  0.00000E+000
  5.76000E-002	  2.36318E+000	  2.36379E+000	  0.00000E+000	  0.00000E+000
  6.40000E-002	  2.32811E+000	  2.32825E+000	  0.00000E+000	  0.00000E+000
  7.04000E-002	  2.29442E+000	  2.29523E+000	  0.00000E+000	  0.00000E+000
  7.68000E-002	  2.26180E+000	  2.26270E+000	  0.00000E+000	  0.00000E+000
  8.32000E-002	  2.22876E+000	  2.22871E+000	  0.00000E+000	  0.00000E+000
  8.96000E-002	  2.19694E+000	  2.19635E+000	  0.00000E+000	  0.00000E+000
  9.60000E-002	  2.16521E+000	  2.16394E+000	  0.00000E+000	  0.00000E+000
  1.02400E-001	  2.13507E+000	  2.13400E+000	  0.00000E+000	  0.00000E+000
  1.15200E-001	  2.07518E+000	  2.07493E+000	  0.00000E+000	  0.00000E+000
  1.28000E-001	  2.01547E+000	  2.01544E+000	  0.00000E+000	  0.00000E+000
  1.40800E-001	  1.95959E+000	  1.95909E+000	  0.00000E+000	  0.00000E+000
  1.53600E-001	  1.90491E+000	  1.90413E+000	  0.00000E+000	  0.00000E+000
  1.66400E-001	  1.85236E+000	  1.85127E+000	  0.00000E+000	  0.00000E+000
  1.79200E-001	  1.80200E+000	  1.80049E+000	  0.00000E+000	  0.00000E+000
  1.92000E-001	  1.75284E+000	  1.75166E+000	  0.00000E+000	  0.00000E+000
  2.04800E-001	  1.70477E+000	  1.70337E+000	  0.00000E+000	  0.00000E+000
  2.30400E-001	  1.61371E+000	  1.61198E+000	  0.00000E+000	  0.00000E+000
  2.56000E-001	  1.52843E+000	  1.52716E+000	  0.00000E+000	  0.00000E+000
  2.81600E-001	  1.44659E+000	  1.44643E+000	  0.00000E+000	  0.00000E+000
  3.07200E-001	  1.37088E+000	  1.37028E+000	  0.00000E+000	  0.00000E+000
  3.32800E-001	  1.29909E+000	  1.29847E+000	  0.00000E+000	  0.00000E+000
  3.58400E-001	  1.23095E+000	  1.23014E+000	  0.00000E+000	  0.00000E+000
  3.84000E-001	  1.16739E+000	  1.16686E+000	  0.00000E+000	  0.00000E+000
  4.09600E-001	  1.10769E+000	  1.10675E+000	  0.00000E+000	  0.00000E+000
  4.60800E-001	  9.97026E-001	  9.95937E-001	  0.00000E+000	  0.00000E+000
  5.12000E-001	  8.98351E-001	  8.97044E-001	  0.00000E+000	  0.00000E+000
  5.63200E-001	  8.09521E-001	  8.08282E-001	  0.00000E+000	  0.00000E+000
  6.14400E-001	  7.30149E-001	  7.28659E-001	  0.00000E+000	  0.00000E+000
  6.65600E-001	  6.58835E-001	  6.58704E-001	  0.00000E+000	  0.00000E+000
  7.16800E-001	  5.95616E-001	  5.96353E-001	  0.00000E+000	  0.00000E+000
  7.68000E-001	  5.38710E-001	  5.38510E-001	  0.00000E+000	  0.00000E+000
  8.19200E-001	  4.88418E-001	  4.88741E-001	  0.00000E+000	  0.00000E+000
  9.21600E-001	  4.00726E-001	  4.01040E-001	  0.00000E+000	  0.00000E+000
  1.02400E+000	  3.30372E-001	  3.30194E-001	  0.00000E+000	  0.00000E+000
  1.12640E+000	  2.73133E-001	  2.73081E-001	  0.00000E+000	  0.00000E+000
  1.22880E+000	  2.26219E-001	  2.25742E-001	  0.00000E+000	  0.00000E+000
  1.33120E+000	  1.89257E-001	  1.88992E-001	  0.00000E+000	  0.00000E+000
  1.43360E+000	  1.59705E-001	  1.59658E-001	  0.00000E+000	  0.00000E+000
  1.53600E+000	  1.35080E-001	  1.35365E-001	  0.00000E+000	  0.00000E+000
  1.63840E+000	  1.12364E-001	  1.12573E-001	  0.00000E+000	  0.00000E+000
  1.84320E+000	  7.50015E-002	  7.53465E-002	  0.00000E+000	  0.00000E+000
  2.04800E+000	  5.09651E-002	  5.15749E-002	  0.00000E+000	  0.00000E+000
  2.25280E+000	  3.70854E-002	  3.75240E-002	  0.00000E+000	  0.00000E+000
  2.45760E+000	  2.82682E-002	  2.87887E-002	  0.00000E+000	  0.00000E+000
  2.66240E+000	  2.33339E-002	  2.27880E-002	  0.00000E+000	  0.00000E+000
  2.86720E+000	  2.04548E-002	  1.86820E-002	  0.00000E+000	  0.00000E+000
  3.07200E+000	  1.89136E-002	  1.73737E-002	  0.00000E+000	  0.00000E+000
  3.27680E+000	  1.84894E-002	  1.72121E-002	  0.00000E+000	  0.00000E+000
  3.68640E+000	  1.42826E-002	  1.40240E-002	  0.00000E+000	  0.00000E+000
  4.09600E+000	  5.00464E-003	  4.81706E-003	  0.00000E+000	  0.00000E+000
  4.50560E+000	  5.15356E-003	  5.15784E-003	  0.00000E+000	  0.00000E+000
  4.91520E+000	  1.86037E-002	  1.83293E-002	  0.00000E+000	  0.00000E+000
  5.32480E+000	  1.76971E-002	  1.75357E-002	  0.00000E+000	  0.00000E+000
  5.73440E+000	  9.62966E-003	  1.04031E-002	  0.00000E+000	  0.00000E+000
  6.14400E+000	  1.96506E-003	  2.41648E-003	  0.00000E+000	  0.00000E+000
  6.55360E+000	 -5.56905E-004	 -9.79443E-004	  0.00000E+000	  0.00000E+000
  7.37280E+000	  6.97848E-003	  6.28930E-003	  0.00000E+000	  0.00000E+000
  8.19200E+000	  1.30875E-002	  1.24375E-002	  0.00000E+000	  0.00000E+000
  9.01120E+000	  2.73923E-004	  4.83880E-004	  0.00000E+000	  0.00000E+000
  9.83040E+000	 -2.09225E-002	 -2.06554E-002	  0.00000E+000	  0.00000E+000
  1.06496E+001	 -1.45273E-002	 -1.39451E-002	  0.00000E+000	  0.00000E+000
  1.14688E+001	 -1.23561E-002	 -1.20842E-002	  0.00000E+000	  0.00000E+000
  1.22880E+001	 -1.07831E-002	 -1.11837E-002	  0.00000E+000	  0.00000E+000
  1.31072E+001	 -2.17666E-002	 -2.20301E-002	  0.00000E+000	  0.00000E+000
  1.47456E+001	 -5.17879E-003	 -5.34917E-003	  0.00000E+000	  0.00000E+000
  1.63840E+001	 -4.46752E-004	 -1.16424E-004	  0.00000E+000	  0.00000E+000
  1.80224E+001	  6.15773E-003	  5.28685E-003	  0.00000E+000	  0.00000E+000
  1.96608E+001	  1.10092E-002	  1.15133E-002	  0.00000E+000	  0.00000E+000
  2.12992E+001	  6.35493E-003	  6.91433E-003	  0.00000E+000	  0.00000E+000
  2.29376E+001	  1.39024E-002	  1.50340E-002	  0.00000E+000	  0.00000E+000
  2.45760E+001	  1.85022E-002	  1.86012E-002	  0.00000E+000	  0.00000E+000
  2.62144E+001	  3.98103E-003	  3.20253E-003	  0.00000E+000	  0.00000E+000
  2.94912E+001	 -8.91740E-003	 -8.88015E-003	  0.00000E+000	  0.00000E+000
  3.27680E+001	 -1.03606E-002	 -1.00397E-002	  0.00000E+000	  0.00000E+000
  3.60448E+001	 -6.18191E-003	 -6.08481E-003	  0.00000E+000	  0.00000E+000
  3.93216E+001	  4.03238E-003	  4.57935E-003	  0.00000E+000	  0.00000E+000
  4.25984E+001	 -1.50765E-002	 -1.48668E-002	  0.00000E+000	  0.00000E+000
  4.58752E+001	  1.68043E-003	  1.56948E-003	  0.00000E+000	  0.00000E+000
  4.91520E+001	 -9.28149E-003	 -8.96029E-003	  0.00000E+000	  0.00000E+000
  5.24288E+001	  3.44439E-003	  3.49718E-003	  0.00000E+000	  0.00000E+000
  5.89824E+001	  1.26222E-003	  1.42496E-003	  0.00000E+000	  0.00000E+000
  6.55360E+001	  3.63726E-003	  3.41986E-003	  0.00000E+000	  0.00000E+000
  7.20896E+001	  1.98893E-003	  9.75905E-004	  0.00000E+000	  0.00000E+000
  7.86432E+001	  7.51554E-003	  7.55024E-003	  0.00000E+000	  0.00000E+000
  8.51968E+001	 -1.05168E-002	 -1.09084E-002	  0.00000E+000	  0.00000E+000
  9.17504E+001	 -6.98605E-004	 -4.41227E-004	  0.00000E+000	  0.00000E+000
  9.83040E+001	  9.35047E-003	  9.50786E-003	  0.00000E+000	  0.00000E+000
  1.04858E+002	  5.47366E-003	  5.40579E-003	  0.00000E+000	  0.00000E+000
  1.17965E+002	  6.71673E-003	  6.74601E-003	  0.00000E+000	  0.00000E+000
  1.31072E+002	  5.48032E-003	  5.32513E-003	  0.00000E+000	  0.00000E+000
  1.44179E+002	  5.34714E-003	  5.15298E-003	  0.00000E+000	  0.00000E+000
  1.57286E+002	 -4.77943E-003	 -4.41775E-003	  0.00000E+000	  0.00000E+000
  1.70394E+002	  4.76956E-003	  4.34908E-003	  0.00000E+000	  0.00000E+000
  1.83501E+002	  7.14356E-003	  7.29790E-003	  0.00000E+000	  0.00000E+000
  1.96608E+002	 -2.86203E-003	 -2.57851E-003	  0.00000E+000	  0.00000E+000
  2.09715E+002	 -2.10091E-003	 -2.07556E-003	  0.00000E+000	  0.00000E+000
  2.35930E+002	 -1.54883E-003	 -1.49472E-003	  0.00000E+000	  0.00000E+000
  2.62144E+002	  8.04345E-005	  1.39862E-004	  0.00000E+000	  0.00000E+000
  2.88358E+002	 -1.86632E-003	 -1.70359E-003	  0.00000E+000	  0.00000E+000
  3.14573E+002	  9.93555E-004	  1.24885E-003	  0.00000E+000	  0.00000E+000
  3.40787E+002	 -4.35532E-003	 -4.17845E-003	  0.00000E+000	  0.00000E+000
  3.67002E+002	 -3.40255E-003	 -3.73035E-003	  0.00000E+000	  0.00000E+000
  3.93216E+002	 -5.02695E-003	 -4.92375E-003	  0.00000E+000	  0.00000E+000
  4.19430E+002	  2.57043E-003	  2.94478E-003	  0.00000E+000	  0.00000E+000
  4.71859E+002	 -2.00567E-003	 -1.81600E-003	  0.00000E+000	  0.00000E+000
  5.24288E+002	 -1.05386E-003	 -1.04438E-003	  0.00000E+000	  0.00000E+000
  5.76717E+002	  9.58742E-004	  7.28678E-004	  0.00000E+000	  0.00000E+000
  6.29146E+002	  3.90480E-003	  3.78746E-003	  0.00000E+000	  0.00000E+000
  6.81574E+002	  6.28164E-005	  1.17959E-004	  0.00000E+000	  0.00000E+000
  7.34003E+002	  2.44406E-003	  2.54011E-003	  0.00000E+000	  0.00000E+000
  7.86432E+002	 -7.72065E-004	 -1.00574E-003	  0.00000E+000	  0.00000E+000
  8.38861E+002	 -4.79108E-004	 -5.21902E-004	  0.00000E+000	  0.00000E+000
  9.43718E+002	 -1.06326E-003	 -1.00351E-003	  0.00000E+000	  0.00000E+000
  1.04858E+003	  2.81089E-003	  2.76454E-003	  0.00000E+000	  0.00000E+000
  1.15343E+003	 -7.54257E-004	 -8.43052E-004	  0.00000E+000	  0.00000E+000
  1.25829E+003	 -2.69930E-004	 -2.76217E-004	  0.00000E+000	  0.00000E+000
  1.36315E+003	  9.70282E-004	  1.23318E-003	  0.00000E+000	  0.00000E+000
  1.46801E+003	  1.13685E-003	  1.11493E-003	  0.00000E+000	  0.00000E+000
  1.57286E+003	  2.73323E-003	  2.65960E-003	  0.00000E+000	  0.00000E+000
  1.67772E+003	  7.36865E-004	  7.11806E-004	  0.00000E+000	  0.00000E+000
  1.88744E+003	 -3.67308E-004	 -1.28014E-004	  0.00000E+000	  0.00000E+000
  2.09715E+003	  2.34473E-003	  2.27701E-003	  0.00000E+000	  0.00000E+000
  2.30687E+003	 -1.34594E-003	 -1.33684E-003	  0.00000E+000	  0.00000E+000
  2.51658E+003	  2.62637E-003	  2.55600E-003	  0.00000E+000	  0.00000E+000
  2.72630E+003	 -2.69539E-004	 -1.98081E-004	  0.00000E+000	  0.00000E+000
  2.93601E+003	 -8.22253E-004	 -6.13580E-004	  0.00000E+000	  0.00000E+000
  3.14573E+003	 -2.31868E-003	 -2.56337E-003	  0.00000E+000	  0.00000E+000

"Count Rate"
       0.03906	     333.74408	     338.06448	     333.74408	     338.06448
       0.07813	     255.33786	     264.15759	     255.33786	     264.15759
       0.11719	     239.99919	     243.27144	     239.99919	     243.27144
       0.15625	     279.44516	     287.06335	     279.44516	     287.06335
       0.19531	     274.71573	     279.29178	     274.71573	     279.29178
       0.23438	     296.77786	     303.32236	     296.77786	     303.32236
       0.27344	     308.92099	     315.23541	     308.92099	     315.23541
       0.31250	     295.70416	     304.83066	     295.70416	     304.83066
       0.35156	     319.14676	     322.75134	     319.14676	     322.75134
       0.39063	     373.21561	     377.17810	     373.21561	     377.17810
       0.42969	     296.88013	     299.53882	     296.88013	     299.53882
       0.46875	     254.31529	     254.54536	     254.31529	     254.54536
       0.50781	     264.38770	     268.12009	     264.38770	     268.12009
       0.54688	     358.26041	     364.39587	     358.26041	     364.39587
       0.58594	     286.29642	     291.61383	     286.29642	     291.61383
       0.62500	     270.01187	     279.31732	     270.01187	     279.31732
       0.66406	     289.36417	     295.42294	     289.36417	     295.42294
       0.70313	     234.19606	     246.00684	     234.19606	     246.00684
       0.74219	     218.19270	     220.51906	     218.19270	     220.51906
       0.78125	     417.82559	     436.94781	     417.82559	     436.94781
       0.82031	     277.73233	     289.38974	     277.73233	     289.38974
       0.85938	     346.98648	     352.58508	     346.98648	     352.58508
       0.89844	     275.35483	     283.91895	     275.35483	     283.91895
       0.93750	     348.44363	     358.03030	     348.44363	     358.03030
       0.97656	     322.31677	     328.52893	     322.31677	     328.52893
       1.01563	     352.89185	     364.19135	     352.89185	     364.19135
       1.05469	     251.98892	     262.13800	     251.98892	     262.13800
       1.09375	     274.02548	     292.27850	     274.02548	     292.27850
       1.13281	     302.81107	     314.31509	     302.81107	     314.31509
       1.17188	     311.06839	     312.37219	     311.06839	     312.37219
       1.21094	     225.91316	     230.13130	     225.91316	     230.13130
       1.25000	     269.32162	     276.24960	     269.32162	     276.24960
       1.28906	     275.27814	     287.65134	     275.27814	     287.65134
       1.32813	     259.14697	     264.08090	     259.14697	     264.08090
       1.36719	     233.48026	     236.72693	     233.48026	     236.72693
       1.40625	     309.94357	     322.06113	     309.94357	     322.06113
       1.44531	     257.58752	     261.47333	     257.58752	     261.47333
       1.48438	     265.84485	     274.81799	     265.84485	     274.81799
       1.52344	     205.87062	     214.43472	     205.87062	     214.43472
       1.56250	     252.57690	     258.55899	     252.57690	     258.55899
       1.60156	     243.80829	     244.52409	     243.80829	     244.52409
       1.64063	     303.37350	     309.04880	     303.37350	     309.04880
       1.67969	     261.19214	     269.65396	     261.19214	     269.65396
       1.71875	     271.29010	     275.25259	     271.29010	     275.25259
       1.75781	     351.71588	     361.76273	     351.71588	     361.76273
       1.79688	     279.72635	     285.96408	     279.72635	     285.96408
       1.83594	     285.68289	     298.31174	     285.68289	     298.31174
       1.87500	     210.26772	     218.90851	     210.26772	     218.90851
       1.91406	     226.85905	     229.59445	     226.85905	     229.59445
       1.95313	     254.00851	     260.55301	     254.00851	     260.55301
       1.99219	     208.58046	     213.59109	     208.58046	     213.59109
       2.03125	     304.29382	     309.73904	     304.29382	     309.73904
       2.07031	     281.00458	     288.03482	     281.00458	     288.03482
       2.10938	     275.50824	     282.48734	     275.50824	     282.48734
       2.14844	     348.64816	     361.04694	     348.64816	     361.04694
       2.18750	     232.04865	     239.64128	     232.04865	     239.64128
       2.22656	     341.77133	     346.98648	     341.77133	     346.98648
       2.26563	     234.40057	     243.16917	     234.40057	     243.16917
       2.30469	     273.59088	     281.13242	     273.59088	     281.13242
       2.34375	     363.88458	     368.79297	     363.88458	     368.79297
       2.38281	     313.42032	     323.33932	     313.42032	     323.33932
       2.42188	     272.90067	     277.70676	     272.90067	     277.70676
       2.46094	     311.17065	     321.54984	     311.17065	     321.54984
       2.50000	     266.40729	     284.20013	     266.40729	     284.20013
       2.53906	     243.91055	     251.91223	     243.91055	     251.91223
       2.57813	     260.34851	     264.05536	     260.34851	     264.05536
       2.61719	     263.92752	     270.82993	     263.92752	     270.82993
       2.65625	     257.53641	     270.75323	     257.53641	     270.75323
       2.69531	     232.58549	     233.94041	     232.58549	     233.94041
       2.73438	     296.03650	     302.32535	     296.03650	     302.32535
       2.77344	     305.21414	     314.08499	     305.21414	     314.08499
       2.81250	     211.00908	     213.71892	     211.00908	     213.71892
       2.85156	     301.22607	     310.81274	     301.22607	     310.81274
       2.89063	     346.16840	     356.16412	     346.16840	     356.16412
       2.92969	     261.80566	     270.82993	     261.80566	     270.82993
       2.96875	     361.94168	     377.45932	     361.94168	     377.45932
       3.00781	     291.71609	     291.07700	     291.71609	     291.07700
       3.04688	     289.49197	     291.35818	     289.49197	     291.35818
       3.08594	     317.40839	     325.84467	     317.40839	     325.84467
       3.12500	     237.87733	     243.52708	     237.87733	     243.52708
       3.16406	     375.41415	     383.00681	     375.41415	     383.00681
       3.20313	     237.92847	     248.97232	     237.92847	     248.97232
       3.24219	     271.62244	     279.13837	     271.62244	     279.13837
       3.28125	     312.73007	     320.16934	     312.73007	     320.16934
       3.32031	     273.61646	     266.17719	     273.61646	     266.17719
       3.35938	     352.07379	     371.60504	     352.07379	     371.60504
       3.39844	     269.21936	     276.37741	     269.21936	     276.37741
       3.43750	     268.63138	     271.87808	     268.63138	     271.87808
       3.47656	     311.32404	     315.61887	     311.32404	     315.61887
       3.51563	     259.27478	     262.85382	     259.27478	     262.85382
       3.55469	     311.37518	     315.79782	     311.37518	     315.79782
       3.59375	     216.47987	     217.91148	     216.47987	     217.91148
       3.63281	     278.78049	     286.21973	     278.78049	     286.21973
       3.67188	     290.28448	     299.12979	     290.28448	     299.12979
       3.71094	     292.22739	     299.46213	     292.22739	     299.46213
       3.75000	     240.17813	     252.88368	     240.17813	     252.88368
       3.78906	     352.73846	     366.00644	     352.73846	     366.00644
       3.82813	     229.00647	     239.69241	     229.00647	     239.69241
       3.86719	     282.20612	     292.76425	     282.20612	     292.76425
       3.90625	     352.89185	     360.17773	     352.89185	     360.17773
       3.94531	     230.97493	     235.34645	     230.97493	     235.34645
       3.98438	     330.82971	     336.42834	     330.82971	     336.42834
       4.02344	     245.18877	     246.51813	     245.18877	     246.51813
       4.06250	     277.29773	     280.92789	     277.29773	     280.92789
       4.10156	     306.97809	     312.55115	     306.97809	     312.55115
       4.14063	     265.84485	     271.18784	     265.84485	     271.18784
       4.17969	     237.46831	     234.73291	     237.46831	     234.73291
       4.21875	     272.38937	     287.65134	     272.38937	     287.65134
       4.25781	     266.43283	     276.91428	     266.43283	     276.91428
       4.29688	     219.77769	     230.48921	     219.77769	     230.48921
       4.33594	     291.76721	     298.84857	     291.76721	     298.84857
       4.37500	     372.95996	     381.54962	     372.95996	     381.54962
       4.41406	     293.22440	     308.15405	     293.22440	     308.15405
       4.45313	     378.68640	     383.64590	     378.68640	     383.64590
       4.49219	     374.59610	     375.26077	     374.59610	     375.26077
       4.53125	     245.87901	     245.49554	     245.87901	     245.49554
       4.57031	     367.13126	     375.49084	     367.13126	     375.49084
       4.60938	     226.27107	     233.25017	     226.27107	     233.25017
       4.64844	     348.98050	     365.82748	     348.98050	     365.82748
       4.68750	     317.15274	     330.77859	     317.15274	     330.77859
       4.72656	     264.10648	     274.97137	     264.10648	     274.97137
       4.76563	     273.30969	     277.57895	     273.30969	     277.57895
       4.80469	     313.42032	     321.49869	     313.42032	     321.49869
       4.84375	     288.90399	     300.30576	     288.90399	     300.30576
       4.88281	     352.07379	     366.31320	     352.07379	     366.31320
       4.92188	     273.46307	     281.38806	     273.46307	     281.38806
       4.96094	     341.51569	     351.35800	     341.51569	     351.35800
       5.00000	     427.94913	     439.60651	     427.94913	     439.60651
       5.03906	     264.20874	     273.74429	     264.20874	     273.74429
       5.07813	     283.66330	     288.03482	     283.66330	     288.03482
       5.11719	     208.86166	     218.49947	     208.86166	     218.49947
       5.15625	     339.72617	     348.29025	     339.72617	     348.29025
       5.19531	     233.68477	     238.84879	     233.68477	     238.84879
       5.23438	     326.61160	     337.57874	     326.61160	     337.57874
       5.27344	     311.11954	     323.54385	     311.11954	     323.54385
       5.31250	     234.42613	     245.90457	     234.42613	     245.90457
       5.35156	     261.90793	     265.35913	     261.90793	     265.35913
       5.39063	     271.64798	     278.65265	     271.64798	     278.65265
       5.42969	     403.48392	     412.25253	     403.48392	     412.25253
       5.46875	     254.05965	     264.89899	     254.05965	     264.89899
       5.50781	     257.79205	     261.80566	     257.79205	     261.80566
       5.54688	     293.91464	     301.96744	     293.91464	     301.96744
       5.58594	     300.25464	     306.18558	     300.25464	     306.18558
       5.62500	     323.51828	     327.42966	     323.51828	     327.42966
       5.66406	     298.97641	     306.87582	     298.97641	     306.87582
       5.70313	     326.12585	     330.34399	     326.12585	     330.34399
       5.74219	     285.42725	     289.69650	     285.42725	     289.69650
       5.78125	     256.30933	     260.93649	     256.30933	     260.93649
       5.82031	     265.12906	     275.55936	     265.12906	     275.55936
       5.85938	     355.21823	     357.49347	     355.21823	     357.49347
       5.89844	     229.23654	     232.09976	     229.23654	     232.09976
       5.93750	     312.14209	     322.24005	     312.14209	     322.24005
       5.97656	     306.10889	     317.15274	     306.10889	     317.15274
       6.01563	     336.58173	     348.18799	     336.58173	     348.18799
       6.05469	     345.60599	     353.96558	     345.60599	     353.96558
       6.09375	     318.09863	     326.33038	     318.09863	     326.33038
       6.13281	     292.38077	     301.83963	     292.38077	     301.83963
       6.17188	     317.48508	     321.11523	     317.48508	     321.11523
       6.21094	     237.62169	     242.78571	     237.62169	     242.78571
       6.25000	     318.96780	     331.39215	     318.96780	     331.39215
       6.28906	     270.82993	     280.64670	     270.82993	     280.64670
       6.32813	     289.92657	     294.09360	     289.92657	     294.09360
       6.36719	     286.37314	     290.82135	     286.37314	     290.82135
       6.40625	     272.54276	     277.04208	     272.54276	     277.04208
       6.44531	     260.24625	     266.79074	     260.24625	     266.79074
       6.48438	     269.73065	     270.21637	     269.73065	     270.21637
       6.52344	     246.95271	     251.78441	     246.95271	     251.78441
       6.56250	     243.24588	     253.39496	     243.24588	     253.39496
       6.60156	     270.80435	     280.90231	     270.80435	     280.90231
       6.64063	     376.36005	     385.48654	     376.36005	     385.48654
       6.67969	     233.14790	     239.69241	     233.14790	     239.69241
       6.71875	     297.31473	     301.53284	     297.31473	     301.53284
       6.75781	     269.93518	     277.01654	     269.93518	     277.01654
       6.79688	     266.68848	     274.63904	     266.68848	     274.63904
       6.83594	     250.27611	     255.10779	     250.27611	     255.10779
       6.87500	     313.36920	     328.34998	     313.36920	     328.34998
       6.91406	     310.35260	     322.90475	     310.35260	     322.90475
       6.95313	     274.28113	     274.94580	     274.28113	     274.94580
       6.99219	     311.80975	     310.45483	     311.80975	     310.45483
       7.03125	     255.41455	     263.92752	     255.41455	     263.92752
       7.07031	     290.48901	     291.05142	     290.48901	     291.05142
       7.10938	     379.04431	     383.59479	     379.04431	     383.59479
       7.14844	     298.59293	     305.31641	     298.59293	     305.31641
       7.18750	     267.07196	     279.57297	     267.07196	     279.57297
       7.22656	     325.97247	     337.78326	     325.97247	     337.78326
       7.26563	     315.67001	     326.99506	     315.67001	     326.99506
       7.30469	     253.06262	     264.66888	     253.06262	     264.66888
       7.34375	     293.99133	     308.84430	     293.99133	     308.84430
       7.38281	     305.39310	     315.56775	     305.39310	     315.56775
       7.42188	     394.22958	     397.24622	     394.22958	     397.24622
       7.46094	     226.52672	     228.75082	     226.52672	     228.75082
       7.50000	     276.19846	     285.63174	     276.19846	     285.63174
       7.53906	     313.36920	     321.42200	     313.36920	     321.42200
       7.57813	     208.73384	     211.23917	     208.73384	     211.23917
       7.61719	     250.76183	     255.10779	     250.76183	     255.10779
       7.65625	     367.92377	     379.96463	     367.92377	     379.96463
       7.69531	     242.27443	     254.08521	     242.27443	     254.08521
       7.73438	     222.15520	     234.40057	     222.15520	     234.40057
       7.77344	     274.05106	     283.22870	     274.05106	     283.22870
       7.81250	     224.68607	     230.51477	     224.68607	     230.51477
       7.85156	     208.78497	     213.71892	     208.78497	     213.71892
       7.89063	     283.61215	     287.52353	     283.61215	     287.52353
       7.92969	     277.50226	     278.85718	     277.50226	     278.85718
       7.96875	     299.87115	     309.63678	     299.87115	     309.63678
       8.00781	     240.51048	     244.37071	     240.51048	     244.37071
       8.04688	     310.09695	     309.96912	     310.09695	     309.96912
       8.08594	     253.70174	     269.62839	     253.70174	     269.62839
       8.12500	     285.70844	     293.12213	     285.70844	     293.12213
       8.16406	     343.22849	     350.00308	     343.22849	     350.00308
       8.20313	     327.07175	     334.63882	     327.07175	     334.63882
       8.24219	     221.00479	     226.24550	     221.00479	     226.24550
       8.28125	     300.17795	     312.19324	     300.17795	     312.19324
       8.32031	     257.63867	     264.33655	     257.63867	     264.33655
       8.35938	     300.05011	     301.12381	     300.05011	     301.12381
       8.39844	     277.22104	     288.03482	     277.22104	     288.03482
       8.43750	     260.01617	     270.03745	     260.01617	     270.03745
       8.47656	     285.29941	     294.98834	     285.29941	     294.98834
       8.51563	     253.72731	     252.98593	     253.72731	     252.98593
       8.55469	     254.72432	     258.86575	     254.72432	     258.86575
       8.59375	     248.69110	     253.29271	     248.69110	     253.29271
       8.63281	     243.80829	     253.26714	     243.80829	     253.26714
       8.67188	     298.20947	     305.00961	     298.20947	     305.00961
       8.71094	     322.36789	     324.20853	     322.36789	     324.20853
       8.75000	     263.74857	     263.33954	     263.74857	     263.33954
       8.78906	     296.47110	     304.24268	     296.47110	     304.24268
       8.82813	     312.57669	     317.94525	     312.57669	     317.94525
       8.86719	     283.35651	     293.14771	     283.35651	     293.14771
       8.90625	     281.46475	     290.66797	     281.46475	     290.66797
       8.94531	     344.25107	     346.80753	     344.25107	     346.80753
       8.98438	     302.96445	     315.77225	     302.96445	     315.77225
       9.02344	     257.99658	     263.05832	     257.99658	     263.05832
       9.06250	     386.22791	     397.78305	     386.22791	     397.78305
       9.10156	     229.36436	     237.62169	     229.36436	     237.62169
       9.14063	     317.68961	     325.81909	     317.68961	     325.81909
       9.17969	     333.84634	     337.24640	     333.84634	     337.24640
       9.21875	     274.94580	     276.53079	     274.94580	     276.53079
       9.25781	     205.76837	     213.71892	     205.76837	     213.71892
       9.29688	     301.35391	     307.89841	     301.35391	     307.89841
       9.33594	     276.30072	     280.18652	     276.30072	     280.18652
       9.37500	     359.30853	     370.53134	     359.30853	     370.53134
       9.41406	     213.61665	     218.03931	     213.61665	     218.03931
       9.45313	     248.56328	     251.96335	     248.56328	     251.96335
       9.49219	     243.73160	     252.55133	     243.73160	     252.55133
       9.53125	     255.23561	     259.96503	     255.23561	     259.96503
       9.57031	     263.74857	     270.13968	     263.74857	     270.13968
       9.60938	     249.68813	     255.51682	     249.68813	     255.51682
       9.64844	     288.34158	     291.35818	     288.34158	     291.35818
       9.68750	     284.07233	     290.92358	     284.07233	     290.92358
       9.72656	     279.06168	     284.91595	     279.06168	     284.91595
       9.76563	     255.92584	     256.41156	     255.92584	     256.41156
       9.80469	     258.96802	     256.33487	     258.96802	     256.33487
       9.84375	     268.14566	     274.58789	     268.14566	     274.58789
       9.88281	     214.17908	     216.47987	     214.17908	     216.47987

Monitor Diode	 256786.89

"Cumulant 1.Order"
FluctuationFreq. [1/ms]	 1.0642E+000
DiffCoefficient [µm²/s]	 2.0280E+000
Hydrodyn. Radius [nm]	 1.2021E+002

"Cumulant 2.Order"
FluctuationFreq. [1/ms]	 1.1625E+000
DiffCoefficient [µm²/s]	 2.2153E+000
Hydrodyn. Radius [nm]	 1.1005E+002
Expansion Parameter µ2	 3.0246E-001

"Cumulant 3.Order"
FluctuationFreq. [1/ms]	 1.2005E+000
DiffCoefficient [µm²/s]	 2.2877E+000
Hydrodyn. Radius [nm]	 1.0657E+002
Expansion Parameter µ2	 5.9955E-001
Expansion Parameter µ3	 7.0487E-001

"StandardDeviation"
  2.50000E-005	  1.60564E-002
  5.00000E-005	  1.60573E-002
  7.50000E-005	  1.60575E-002
  1.00000E-004	  1.60580E-002
  1.25000E-004	  1.60582E-002
  1.50000E-004	  1.60585E-002
  1.75000E-004	  1.60586E-002
  2.00000E-004	  1.60596E-002
  2.25000E-004	  1.60357E-002
  2.50000E-004	  1.60582E-002
  2.75000E-004	  1.60510E-002
  3.00000E-004	  1.60537E-002
  3.25000E-004	  1.60431E-002
  3.50000E-004	  1.60416E-002
  3.75000E-004	  1.60279E-002
  4.00000E-004	  1.41432E-002
  4.50000E-004	  1.41362E-002
  5.00000E-004	  1.41358E-002
  5.50000E-004	  1.41410E-002
  6.00000E-004	  1.41416E-002
  6.50000E-004	  1.41373E-002
  7.00000E-004	  1.41371E-002
  7.50000E-004	  1.41410E-002
  8.00000E-004	  1.30817E-002
  9.00000E-004	  1.30790E-002
  1.00000E-003	  1.30769E-002
  1.10000E-003	  1.30752E-002
  1.20000E-003	  1.30765E-002
  1.30000E-003	  1.30758E-002
  1.40000E-003	  1.30750E-002
  1.50000E-003	  1.30786E-002
  1.60000E-003	  1.25134E-002
  1.80000E-003	  1.25116E-002
  2.00000E-003	  1.25110E-002
  2.20000E-003	  1.25103E-002
  2.40000E-003	  1.25120E-002
  2.60000E-003	  1.25099E-002
  2.80000E-003	  1.25111E-002
  3.00000E-003	  1.25096E-002
  3.20000E-003	  1.22190E-002
  3.60000E-003	  1.22165E-002
  4.00000E-003	  1.22156E-002
  4.40000E-003	  1.22159E-002
  4.80000E-003	  1.22149E-002
  5.20000E-003	  1.22148E-002
  5.60000E-003	  1.22147E-002
  6.00000E-003	  1.22136E-002
  6.40000E-003	  1.20646E-002
  7.20000E-003	  1.20604E-002
  8.00000E-003	  1.20598E-002
  8.80000E-003	  1.20588E-002
  9.60000E-003	  1.20583E-002
  1.04000E-002	  1.20571E-002
  1.12000E-002	  1.20562E-002
  1.20000E-002	  1.20553E-002
  1.28000E-002	  1.19783E-002
  1.44000E-002	  1.19705E-002
  1.60000E-002	  1.19688E-002
  1.76000E-002	  1.19673E-002
  1.92000E-002	  1.19652E-002
  2.08000E-002	  1.19636E-002
  2.24000E-002	  1.19616E-002
  2.40000E-002	  1.19595E-002
  2.56000E-002	  1.19135E-002
  2.88000E-002	  1.18976E-002
  3.20000E-002	  1.18938E-002
  3.52000E-002	  1.18912E-002
  3.84000E-002	  1.18866E-002
  4.16000E-002	  1.18831E-002
  4.48000E-002	  1.18789E-002
  4.80000E-002	  1.18741E-002
  5.12000E-002	  1.18441E-002
  5.76000E-002	  1.18128E-002
  6.40000E-002	  1.18044E-002
  7.04000E-002	  1.17948E-002
  7.68000E-002	  1.17827E-002
  8.32000E-002	  1.17720E-002
  8.96000E-002	  1.17592E-002
  9.60000E-002	  1.17474E-002
  1.02400E-001	  1.17199E-002
  1.15200E-001	  1.16503E-002
  1.28000E-001	  1.16218E-002
  1.40800E-001	  1.15913E-002
  1.53600E-001	  1.15542E-002
  1.66400E-001	  1.15202E-002
  1.79200E-001	  1.14860E-002
  1.92000E-001	  1.14477E-002
  2.04800E-001	  1.13912E-002
  2.30400E-001	  1.12712E-002
  2.56000E-001	  1.11758E-002
  2.81600E-001	  1.10815E-002
  3.07200E-001	  1.09789E-002
  3.32800E-001	  1.08798E-002
  3.58400E-001	  1.07712E-002
  3.84000E-001	  1.06682E-002
  4.09600E-001	  1.05789E-002
  4.60800E-001	  1.03103E-002
  5.12000E-001	  1.00877E-002
  5.63200E-001	  9.86518E-003
  6.14400E-001	  9.65714E-003
  6.65600E-001	  9.42894E-003
  7.16800E-001	  9.21817E-003
  7.68000E-001	  9.00146E-003
  8.19200E-001	  8.79689E-003
  9.21600E-001	  8.39604E-003
  1.02400E+000	  8.07938E-003
  1.12640E+000	  7.79197E-003
  1.22880E+000	  7.53212E-003
  1.33120E+000	  7.29120E-003
  1.43360E+000	  7.08107E-003
  1.53600E+000	  6.06584E-003
  1.63840E+000	  5.90468E-003
  1.84320E+000	  5.90468E-003
  2.04800E+000	  5.90468E-003
  2.25280E+000	  5.90468E-003
  2.45760E+000	  5.90468E-003
  2.66240E+000	  5.90468E-003
  2.86720E+000	  5.90468E-003
  3.07200E+000	  5.90468E-003
  3.27680E+000	  5.85015E-003
  3.68640E+000	  5.85015E-003
  4.09600E+000	  5.85015E-003
  4.50560E+000	  5.85015E-003
  4.91520E+000	  5.85015E-003
  5.32480E+000	  5.85015E-003
  5.73440E+000	  5.85015E-003
  6.14400E+000	  5.85015E-003
  6.55360E+000	  5.49048E-003
  7.37280E+000	  5.49048E-003
  8.19200E+000	  5.49048E-003
  9.01120E+000	  5.49048E-003
  9.83040E+000	  5.49048E-003
  1.06496E+001	  5.49048E-003
  1.14688E+001	  5.49048E-003
  1.22880E+001	  5.49048E-003
  1.31072E+001	  4.86774E-003
  1.47456E+001	  4.86774E-003
  1.63840E+001	  4.86774E-003
  1.80224E+001	  4.86774E-003
  1.96608E+001	  4.86774E-003
  2.12992E+001	  4.86774E-003
  2.29376E+001	  4.86774E-003
  2.45760E+001	  4.86774E-003
  2.62144E+001	  4.00161E-003
  2.94912E+001	  4.00161E-003
  3.27680E+001	  4.00161E-003
  3.60448E+001	  4.00161E-003
  3.93216E+001	  4.00161E-003
  4.25984E+001	  4.00161E-003
  4.58752E+001	  4.00161E-003
  4.91520E+001	  4.00161E-003
  5.24288E+001	  3.07806E-003
  5.89824E+001	  3.07806E-003
  6.55360E+001	  3.07806E-003
  7.20896E+001	  3.07806E-003
  7.86432E+001	  3.07806E-003
  8.51968E+001	  3.07806E-003
  9.17504E+001	  3.07806E-003
  9.83040E+001	  3.07806E-003
  1.04858E+002	  2.26511E-003
  1.17965E+002	  2.26511E-003
  1.31072E+002	  2.26511E-003
  1.44179E+002	  2.26511E-003
  1.57286E+002	  2.26511E-003
  1.70394E+002	  2.26511E-003
  1.83501E+002	  2.26511E-003
  1.96608E+002	  2.26511E-003
  2.09715E+002	  1.63299E-003
  2.35930E+002	  1.63299E-003
  2.62144E+002	  1.63299E-003
  2.88358E+002	  1.63299E-003
  3.14573E+002	  1.63299E-003
  3.40787E+002	  1.63299E-003
  3.67002E+002	  1.63299E-003
  3.93216E+002	  1.63299E-003
  4.19430E+002	  1.16577E-003
  4.71859E+002	  1.16577E-003
  5.24288E+002	  1.16577E-003
  5.76717E+002	  1.16577E-003
  6.29146E+002	  1.16577E-003
  6.81574E+002	  1.16577E-003
  7.34003E+002	  1.16577E-003
  7.86432E+002	  1.16577E-003
  8.38861E+002	  8.28242E-004
  9.43718E+002	  8.28242E-004
  1.04858E+003	  8.28242E-004
  1.15343E+003	  8.28242E-004
  1.25829E+003	  8.28242E-004
  1.36315E+003	  8.28242E-004
  1.46801E+003	  8.28242E-004
  1.57286E+003	  8.28242E-004
  1.67772E+003	  5.87040E-004
  1.88744E+003	  5.87040E-004
  2.09715E+003	  5.87040E-004
  2.30687E+003	  5.87040E-004
  2.51658E+003	  5.87040E-004
  2.72630E+003	  5.87040E-004
  2.93601E+003	  5.87040E-004
  3.14573E+003	  5.87040E-004
